time,TP9,AF7,AF8,TP10,Right AUX
1699116063.9451418,-284.66796875,-312.01171875,-1000.0,-140.625,0.0
1699116063.9490376,-835.44921875,-837.890625,115.234375,-1000.0,0.0
1699116063.952933,744.62890625,607.421875,-861.328125,-214.35546875,0.0
1699116063.9568286,-901.3671875,-1000.0,360.83984375,-832.51953125,0.0
1699116063.960724,-317.87109375,-747.0703125,-1000.0,250.0,0.0
1699116063.9646196,-940.4296875,811.5234375,-266.11328125,-1000.0,0.0
1699116063.9685152,-890.625,-879.8828125,-974.12109375,-624.0234375,0.0
1699116063.9724107,-248.046875,-253.90625,808.59375,970.21484375,0.0
1699116063.9763062,-789.0625,-1000.0,-498.046875,268.5546875,0.0
1699116063.980202,774.90234375,122.55859375,-531.73828125,-1000.0,0.0
1699116063.9840975,-796.38671875,-756.34765625,856.4453125,-1000.0,0.0
1699116063.987993,159.1796875,195.80078125,970.703125,206.54296875,0.0
1699116063.9920008,-1000.0,-1000.0,-210.44921875,836.42578125,0.0
1699116063.9958963,31.25,-269.04296875,-879.8828125,-719.23828125,0.0
1699116063.9997919,-732.91015625,-795.8984375,489.2578125,-1000.0,0.0
1699116064.0036876,388.18359375,308.10546875,-842.28515625,-196.77734375,0.0
1699116064.0075831,-1000.0,-1000.0,125.9765625,-859.375,0.0
1699116064.0114787,-289.55078125,-393.5546875,-1000.0,39.0625,0.0
1699116064.0153742,-866.69921875,-894.53125,39.55078125,-1000.0,0.0
1699116064.01927,873.53515625,762.6953125,-901.3671875,-331.0546875,0.0
1699116064.0231655,-741.2109375,-841.796875,472.65625,-853.515625,0.0
1699116064.027061,-431.15234375,-893.06640625,-923.33984375,242.67578125,0.0
1699116064.0309565,-982.91015625,654.296875,-308.10546875,-1000.0,0.0
1699116064.034852,-860.83984375,-830.56640625,-1000.0,-909.1796875,0.0
1699116064.0388436,-111.328125,-124.51171875,865.72265625,708.49609375,0.0
1699116064.0427392,-899.4140625,-1000.0,-380.37109375,511.23046875,0.0
1699116064.046635,612.79296875,4.8828125,-650.87890625,-1000.0,0.0
1699116064.0505304,-770.01953125,-761.23046875,746.58203125,-1000.0,0.0
1699116064.054426,166.015625,205.56640625,-994.140625,47.8515625,0.0
1699116064.0583217,-1000.0,-1000.0,-151.3671875,-949.21875,0.0
1699116064.0622172,-73.2421875,-273.4375,-923.828125,-381.34765625,0.0
1699116064.0661128,-753.41796875,-803.22265625,397.4609375,-1000.0,0.0
1699116064.0700083,492.1875,429.19921875,-835.9375,-203.61328125,0.0
1699116064.073904,-1000.0,-1000.0,217.28515625,-845.703125,0.0
1699116064.0777996,-292.48046875,-523.92578125,-1000.0,147.4609375,0.0
1699116064.081695,-903.3203125,-978.02734375,-132.8125,-1000.0,0.0
1699116064.0857651,996.58203125,909.66796875,-937.5,-533.69140625,0.0
1699116064.0896606,-546.875,-620.60546875,650.87890625,-933.59375,0.0
1699116064.0935562,-595.703125,-1000.0,-738.76953125,263.18359375,0.0
1699116064.097452,929.19921875,430.17578125,-366.2109375,-1000.0,0.0
1699116064.1013474,-825.68359375,-786.1328125,962.40234375,-1000.0,0.0
1699116064.1052432,124.0234375,37.59765625,940.91796875,519.04296875,0.0
1699116064.1091387,-1000.0,-1000.0,-251.953125,694.3359375,0.0
1699116064.1130345,325.68359375,-164.0625,-795.41015625,-896.97265625,0.0
1699116064.11693,-729.98046875,-780.76171875,608.3984375,-1000.0,0.0
1699116064.1208255,170.41015625,222.16796875,-911.62109375,-75.68359375,0.0
1699116064.1247213,-1000.0,-1000.0,-42.48046875,-875.48828125,0.0
1699116064.1286168,-174.31640625,-272.4609375,-1000.0,-186.5234375,0.0
1699116064.1326933,-789.55078125,-815.91796875,204.1015625,-1000.0,0.0
1699116064.1365888,618.1640625,543.45703125,-851.5625,-214.35546875,0.0
1699116064.1404846,-1000.0,-1000.0,290.52734375,-834.47265625,0.0
1699116064.14438,-293.45703125,-656.73828125,-1000.0,248.53515625,0.0
1699116064.1482759,-944.82421875,903.80859375,-238.76953125,-1000.0,0.0
1699116064.1521714,-887.6953125,-932.6171875,-967.28515625,-643.06640625,0.0
1699116064.1560671,-263.18359375,-327.1484375,764.16015625,-976.07421875,0.0
1699116064.1599627,-720.703125,-1000.0,-562.98828125,364.74609375,0.0
1699116064.1638584,847.16796875,155.76171875,-480.46875,-1000.0,0.0
1699116064.167754,-802.734375,-757.8125,895.99609375,-1000.0,0.0
1699116064.1716497,147.4609375,182.12890625,944.3359375,312.5,0.0
1699116064.1755455,-1000.0,-1000.0,-242.67578125,836.42578125,0.0
1699116064.1796038,137.20703125,-263.18359375,-856.4453125,-734.86328125,0.0
1699116064.1834993,-722.16796875,-795.41015625,520.5078125,-1000.0,0.0
1699116064.187395,283.203125,238.28125,-865.72265625,-185.05859375,0.0
1699116064.1912909,-1000.0,-1000.0,91.30859375,-879.39453125,0.0
1699116064.1951864,-272.94921875,-340.33203125,-1000.0,-63.96484375,0.0
1699116064.1990821,-874.51171875,-864.74609375,66.89453125,-1000.0,0.0
1699116064.202978,876.46484375,687.01171875,-888.18359375,-319.82421875,0.0
1699116064.2068734,-741.2109375,-934.08203125,422.8515625,-861.81640625,0.0
1699116064.2107692,-431.640625,-820.3125,-976.5625,255.37109375,0.0
1699116064.214665,-982.91015625,729.98046875,-291.9921875,-1000.0,0.0
1699116064.2185605,-856.93359375,-849.609375,-997.55859375,-783.203125,0.0
1699116064.2224562,-136.71875,-161.62109375,847.65625,873.046875,0.0
1699116064.226497,-844.23828125,-1000.0,-413.0859375,477.05078125,0.0
1699116064.2303927,687.01171875,38.57421875,-616.2109375,-1000.0,0.0
1699116064.2342885,-774.90234375,-759.27734375,780.2734375,-1000.0,0.0
1699116064.2381842,154.78515625,202.63671875,976.07421875,107.421875,0.0
1699116064.2420797,-1000.0,-1000.0,-199.70703125,941.89453125,0.0
1699116064.2459755,25.87890625,-271.484375,-903.80859375,-557.6171875,0.0
1699116064.2498713,-740.234375,-800.29296875,435.546875,-1000.0,0.0
1699116064.253767,481.4453125,378.41796875,-844.23828125,-204.1015625,0.0
1699116064.2576628,-1000.0,-1000.0,214.84375,-847.65625,0.0
1699116064.2615583,-294.921875,-483.88671875,-1000.0,145.5078125,0.0
1699116064.265454,-898.4375,-951.171875,-121.58203125,-1000.0,0.0
1699116064.2693498,987.79296875,858.88671875,-925.78125,-440.4296875,0.0
1699116064.2733974,-565.4296875,-686.5234375,560.546875,-886.71875,0.0
1699116064.2772932,-541.015625,-1000.0,-827.63671875,255.859375,0.0
1699116064.281189,969.23828125,456.0546875,-375.48828125,-1000.0,0.0
1699116064.2850847,-845.21484375,-799.8046875,962.890625,-925.78125,0.0
1699116064.2889805,27.34375,-22.4609375,889.16015625,676.7578125,0.0
1699116064.2928762,-1000.0,-1000.0,-310.05859375,589.35546875,0.0
1699116064.2967718,340.33203125,-187.5,-828.61328125,-953.61328125,0.0
1699116064.3006675,-741.69921875,-793.45703125,578.125,-1000.0,0.0
1699116064.3045633,178.7109375,228.515625,-924.8046875,-82.51953125,0.0
1699116064.308459,-1000.0,-1000.0,-62.98828125,-873.53515625,0.0
1699116064.3123548,-242.1875,-282.71484375,-1000.0,-186.5234375,0.0
1699116064.3162506,-801.26953125,-815.91796875,111.328125,-1000.0,0.0
1699116064.3202796,603.02734375,498.046875,-854.98046875,-214.35546875,0.0
1699116064.3241754,-1000.0,-1000.0,298.33984375,-832.03125,0.0
1699116064.328071,-294.43359375,-742.1875,-1000.0,249.0234375,0.0
1699116064.3319669,-931.15234375,835.44921875,-266.11328125,-1000.0,0.0
1699116064.3358626,-922.36328125,-975.5859375,-965.33203125,-548.33984375,0.0
1699116064.3397582,-338.8671875,-434.5703125,741.69921875,-921.38671875,0.0
1699116064.343654,-843.26171875,-1000.0,-589.35546875,246.58203125,0.0
1699116064.3475497,732.421875,118.1640625,-562.98828125,-1000.0,0.0
1699116064.3514454,-792.96875,-769.53125,823.73046875,-1000.0,0.0
1699116064.3553412,157.71484375,126.953125,983.88671875,315.4296875,0.0
1699116064.359237,-1000.0,-1000.0,-199.21875,792.48046875,0.0
1699116064.3631327,33.69140625,-255.859375,-917.48046875,-784.1796875,0.0
1699116064.3671432,-722.65625,-796.38671875,449.21875,-1000.0,0.0
1699116064.371039,272.94921875,221.6796875,-864.2578125,-168.9453125,0.0
1699116064.3749347,-1000.0,-1000.0,108.88671875,-931.15234375,0.0
1699116064.3788304,-195.3125,-331.0546875,-1000.0,-158.69140625,0.0
1699116064.3827262,-854.00390625,-890.13671875,-22.4609375,-1000.0,0.0
1699116064.386622,753.90625,629.8828125,-891.6015625,-220.21484375,0.0
1699116064.3905177,-899.90234375,-988.76953125,498.53515625,-830.078125,0.0
1699116064.3944135,-475.5859375,-878.90625,-934.5703125,238.76953125,0.0
1699116064.3983095,988.76953125,643.5546875,-313.4765625,-1000.0,0.0
1699116064.4022052,-861.81640625,-847.16796875,-989.74609375,-782.71484375,0.0
1699116064.406101,-123.53515625,-198.2421875,872.0703125,874.51171875,0.0
1699116064.4099967,-966.30859375,-1000.0,-395.5078125,397.4609375,0.0
1699116064.4139905,530.76171875,19.04296875,-647.4609375,-1000.0,0.0
1699116064.4178863,-759.27734375,-764.6484375,760.7421875,-1000.0,0.0
1699116064.4217823,164.55078125,205.078125,-971.19140625,177.734375,0.0
1699116064.425678,-1000.0,-1000.0,-158.203125,954.58984375,0.0
1699116064.4295738,-71.2890625,-270.01953125,-910.15625,-564.453125,0.0
1699116064.4334695,-746.58203125,-798.828125,444.3359375,-1000.0,0.0
1699116064.4373653,398.92578125,344.7265625,-830.078125,-194.3359375,0.0
1699116064.441261,-1000.0,-1000.0,209.9609375,-860.83984375,0.0
1699116064.4451568,-275.390625,-479.4921875,-1000.0,42.96875,0.0
1699116064.4490526,-905.76171875,-945.3125,-85.44921875,-1000.0,0.0
1699116064.4529486,990.234375,830.078125,-913.57421875,-427.734375,0.0
1699116064.4568443,-564.94140625,-732.91015625,577.63671875,-895.01953125,0.0
1699116064.4608212,-545.8984375,-1000.0,-819.3359375,259.765625,0.0
1699116064.464717,966.30859375,484.375,-321.77734375,-1000.0,0.0
1699116064.468613,-842.28515625,-802.24609375,986.328125,-908.203125,0.0
1699116064.4725087,20.5078125,-49.8046875,935.05859375,702.1484375,0.0
1699116064.4764044,-1000.0,-1000.0,-278.80859375,593.26171875,0.0
1699116064.4803002,370.60546875,-98.6328125,-706.0546875,-960.44921875,0.0
1699116064.484196,-740.72265625,-773.4375,698.73046875,-1000.0,0.0
1699116064.4880917,173.33984375,215.8203125,-920.41015625,54.6875,0.0
1699116064.4919877,-1000.0,-1000.0,-58.10546875,-951.171875,0.0
1699116064.4958835,-175.78125,-272.4609375,-983.88671875,-381.34765625,0.0
1699116064.4997792,-780.76171875,-808.10546875,266.6015625,-1000.0,0.0
1699116064.503675,568.84765625,475.09765625,-841.796875,-203.61328125,0.0
1699116064.50773,-1000.0,-1000.0,264.16015625,-845.703125,0.0
1699116064.5116258,-290.52734375,-585.44921875,-1000.0,147.4609375,0.0
1699116064.5155215,-930.6640625,973.6328125,-206.0546875,-1000.0,0.0
1699116064.5194175,-914.55078125,976.5625,-956.54296875,-533.69140625,0.0
1699116064.5233133,-376.46484375,-499.51171875,725.09765625,-933.10546875,0.0
1699116064.527209,-639.6484375,-1000.0,-630.859375,263.18359375,0.0
1699116064.531105,910.64453125,293.9453125,-456.54296875,-1000.0,0.0
1699116064.5350008,-822.75390625,-770.99609375,902.34375,-1000.0,0.0
1699116064.5388966,144.04296875,84.47265625,971.6796875,519.53125,0.0
1699116064.5427926,-1000.0,-1000.0,-204.1015625,688.96484375,0.0
1699116064.5466883,201.66015625,-222.65625,-855.95703125,-890.13671875,0.0
1699116064.550584,-727.5390625,-792.96875,538.0859375,-1000.0,0.0
1699116064.5546455,198.2421875,230.95703125,-876.953125,-156.25,0.0
1699116064.5585415,-1000.0,-1000.0,28.3203125,-896.484375,0.0
1699116064.5624373,-270.99609375,-302.24609375,-1000.0,-174.8046875,0.0
1699116064.566333,-841.796875,-832.03125,86.9140625,-1000.0,0.0
1699116064.570229,747.0703125,587.40234375,-865.72265625,-212.40234375,0.0
1699116064.5741248,-900.87890625,-1000.0,364.74609375,-834.47265625,0.0
1699116064.5780208,-314.94140625,-747.0703125,-1000.0,248.53515625,0.0
1699116064.5819166,-939.453125,806.640625,-290.0390625,-1000.0,0.0
1699116064.5858123,-895.99609375,-880.37109375,-974.12109375,-643.06640625,0.0
1699116064.5897083,-231.4453125,-251.953125,788.0859375,-974.12109375,0.0
1699116064.593604,-860.3515625,-1000.0,-525.87890625,357.91015625,0.0
1699116064.5975,697.75390625,104.4921875,-579.1015625,-1000.0,0.0
1699116064.6015434,-781.73828125,-757.8125,836.42578125,-1000.0,0.0
1699116064.6054394,155.76171875,197.75390625,929.6875,223.6328125,0.0
1699116064.6093352,-1000.0,-1000.0,-277.34375,830.078125,0.0
1699116064.6132312,31.25,-269.04296875,-889.6484375,-729.4921875,0.0
1699116064.6171272,-732.91015625,-797.36328125,462.890625,-1000.0,0.0
1699116064.621023,388.18359375,310.546875,-838.8671875,-197.265625,0.0
1699116064.624919,-1000.0,-1000.0,135.25390625,-859.86328125,0.0
1699116064.6288147,-289.55078125,-427.734375,-1000.0,39.0625,0.0
1699116064.6327107,-871.09375,-908.203125,3.90625,-1000.0,0.0
1699116064.6366065,877.44140625,765.625,-896.97265625,-330.56640625,0.0
1699116064.6405025,-739.2578125,-834.9609375,480.46875,-853.02734375,0.0
1699116064.6443982,-521.484375,-925.78125,-934.08203125,244.140625,0.0
1699116064.6484246,966.796875,605.46875,-314.453125,-1000.0,0.0
1699116064.6523206,-837.40234375,-823.73046875,-993.1640625,-891.11328125,0.0
1699116064.6562166,-8.30078125,-102.05078125,852.05078125,732.91015625,0.0
1699116064.6601124,-947.265625,-1000.0,-409.66796875,496.58203125,0.0
1699116064.6640084,512.20703125,-41.015625,-692.87109375,-1000.0,0.0
1699116064.6679041,-750.0,-767.08984375,713.37890625,-1000.0,0.0
1699116064.6718001,162.109375,209.9609375,-947.265625,46.875,0.0
1699116064.6756961,-1000.0,-1000.0,-112.3046875,-948.73046875,0.0
1699116064.679592,-73.2421875,-272.94921875,-958.984375,-381.34765625,0.0
1699116064.683488,-753.41796875,-803.7109375,346.19140625,-1000.0,0.0
1699116064.6873837,492.1875,437.98828125,-834.47265625,-203.61328125,0.0
1699116064.6912796,-1000.0,-1000.0,227.05078125,-845.21484375,0.0
1699116064.695289,-287.59765625,-532.2265625,-1000.0,147.4609375,0.0
1699116064.6991847,-916.015625,-982.421875,-171.38671875,-1000.0,0.0
1699116064.7030807,-968.75,914.0625,-932.6171875,-522.4609375,0.0
1699116064.7069767,-481.93359375,-609.375,636.71875,-927.24609375,0.0
1699116064.7108724,-619.140625,-1000.0,-773.4375,260.7421875,0.0
1699116064.7147684,917.96875,410.15625,-388.18359375,-1000.0,0.0
1699116064.7186644,-819.82421875,-784.66796875,961.42578125,-1000.0,0.0
1699116064.7225602,122.55859375,37.59765625,906.25,519.04296875,0.0
1699116064.7264562,-1000.0,-1000.0,-288.0859375,693.84765625,0.0
1699116064.7303522,325.1953125,-168.9453125,-809.5703125,-896.97265625,0.0
1699116064.7342482,-729.98046875,-781.73828125,590.33203125,-1000.0,0.0
1699116064.738144,170.8984375,223.14453125,-903.3203125,-75.68359375,0.0
1699116064.7421594,-1000.0,-1000.0,-37.109375,-875.48828125,0.0
1699116064.7460554,-173.828125,-272.4609375,-1000.0,-186.5234375,0.0
1699116064.7499514,-791.9921875,-815.4296875,160.64453125,-1000.0,0.0
1699116064.7538474,626.46484375,539.0625,-848.14453125,-214.84375,0.0
1699116064.7577431,-1000.0,-1000.0,306.640625,-834.47265625,0.0
1699116064.761639,-295.41015625,-681.640625,-1000.0,248.53515625,0.0
1699116064.765535,-944.82421875,879.39453125,-252.44140625,-1000.0,0.0
1699116064.769431,-887.6953125,-930.6640625,-956.0546875,-643.06640625,0.0
1699116064.7733269,-263.671875,-328.125,734.375,-976.07421875,0.0
1699116064.7772229,-720.703125,-1000.0,-618.65234375,364.74609375,0.0
1699116064.7811189,849.609375,131.8359375,-541.9921875,-1000.0,0.0
1699116064.7850149,-811.03515625,-759.27734375,857.91015625,-1000.0,0.0
1699116064.7890134,162.109375,187.01171875,933.59375,312.5,0.0
1699116064.7929094,-1000.0,-1000.0,-250.9765625,836.42578125,0.0
1699116064.7968054,33.69140625,-264.16015625,-902.83203125,-735.3515625,0.0
1699116064.8007014,-730.95703125,-798.828125,455.56640625,-1000.0,0.0
1699116064.8045974,337.40234375,255.37109375,-852.05078125,-186.5234375,0.0
1699116064.8084934,-1000.0,-1000.0,111.81640625,-876.953125,0.0
1699116064.8123891,-280.76171875,-423.828125,-1000.0,-52.734375,0.0
1699116064.8162851,-875.48828125,-900.390625,-70.80078125,-1000.0,0.0
1699116064.8201811,878.90625,712.890625,-895.5078125,-321.2890625,0.0
1699116064.8240771,-738.28125,-884.27734375,451.66015625,-861.328125,0.0
1699116064.8279731,-526.3671875,-941.89453125,-983.3984375,254.8828125,0.0
1699116064.8318691,976.5625,571.77734375,-333.0078125,-1000.0,0.0
1699116064.8359458,-844.23828125,-823.2421875,-994.62890625,-783.69140625,0.0
1699116064.8398418,-128.41796875,-159.66796875,847.16796875,872.0703125,0.0
1699116064.8437378,-910.15625,-1000.0,-399.90234375,480.95703125,0.0
1699116064.8476338,613.28125,20.01953125,-699.21875,-1000.0,0.0
1699116064.8515298,-768.06640625,-786.62109375,677.734375,-1000.0,0.0
1699116064.8554258,164.55078125,214.35546875,-941.40625,146.97265625,0.0
1699116064.8593218,-1000.0,-1000.0,-116.2109375,978.515625,0.0
1699116064.8632178,-73.2421875,-270.5078125,-993.1640625,-516.11328125,0.0
1699116064.8671138,-753.41796875,-803.22265625,276.3671875,-1000.0,0.0
1699116064.8710098,492.1875,400.87890625,-840.8203125,-204.58984375,0.0
1699116064.8749058,-1000.0,-1000.0,197.75390625,-846.19140625,0.0
1699116064.8788018,-293.9453125,-555.6640625,-1000.0,145.5078125,0.0
1699116064.88286,-901.3671875,-988.28125,-182.6171875,-1000.0,0.0
1699116064.886756,989.74609375,880.37109375,-918.45703125,-440.4296875,0.0
1699116064.890652,-558.59375,-650.87890625,611.81640625,-887.20703125,0.0
1699116064.894548,-633.30078125,-1000.0,-817.87109375,255.37109375,0.0
1699116064.898444,919.921875,352.5390625,-426.26953125,-1000.0,0.0
1699116064.90234,-826.66015625,-788.57421875,946.77734375,-927.734375,0.0
1699116064.906236,28.80859375,-6.34765625,912.109375,670.8984375,0.0
1699116064.910132,-1000.0,-1000.0,-322.265625,612.3046875,0.0
1699116064.914028,338.8671875,-187.98828125,-812.5,-938.96484375,0.0
1699116064.9179242,-737.79296875,-791.50390625,598.6328125,-1000.0,0.0
1699116064.9218202,173.828125,227.05078125,-902.34375,-81.0546875,0.0
1699116064.9257162,-1000.0,-1000.0,-39.55078125,-874.0234375,0.0
1699116064.9297564,-189.453125,-271.484375,-1000.0,-186.5234375,0.0
1699116064.9336524,-787.59765625,-813.4765625,137.6953125,-1000.0,0.0
1699116064.9375484,595.21484375,521.484375,-844.23828125,-214.35546875,0.0
1699116064.9414444,-1000.0,-1000.0,290.0390625,-831.54296875,0.0
1699116064.9453406,-295.41015625,-650.390625,-1000.0,249.0234375,0.0
1699116064.9492366,-932.12890625,927.24609375,-233.3984375,-1000.0,0.0
1699116064.9531326,-913.57421875,-983.3984375,-941.40625,-549.31640625,0.0
1699116064.9570286,-360.83984375,-428.7109375,715.33203125,-921.38671875,0.0
1699116064.9609246,-728.02734375,-1000.0,-659.66796875,261.71875,0.0
1699116064.9648206,851.5625,194.82421875,-519.53125,-1000.0,0.0
1699116064.9687169,-794.43359375,-762.6953125,886.23046875,-1000.0,0.0
1699116064.9726129,113.76953125,132.32421875,923.828125,305.6640625,0.0
1699116064.9766586,-1000.0,-1000.0,-299.8046875,838.8671875,0.0
1699116064.9805546,319.3359375,-219.7265625,-824.21875,-734.86328125,0.0
1699116064.9844508,-728.02734375,-785.64453125,563.4765625,-1000.0,0.0
1699116064.9883468,270.5078125,226.5625,-881.34765625,-185.05859375,0.0
1699116064.9922428,-1000.0,-1000.0,-12.6953125,-875.48828125,0.0
1699116064.9961388,-183.10546875,-271.484375,-1000.0,-68.359375,0.0
1699116065.000035,-808.10546875,-823.2421875,173.33984375,-1000.0,0.0
1699116065.003931,729.98046875,606.93359375,-847.16796875,-246.58203125,0.0
1699116065.007827,-893.5546875,-1000.0,304.6875,-836.9140625,0.0
1699116065.0117233,-317.3828125,-659.1796875,-1000.0,243.1640625,0.0
1699116065.0156193,-938.96484375,898.4375,-243.65234375,-1000.0,0.0
1699116065.0195153,-886.71875,-894.04296875,-939.94140625,-785.64453125,0.0
1699116065.023545,-264.6484375,-257.8125,695.3125,871.58203125,0.0
1699116065.027441,-712.40234375,-1000.0,-666.50390625,482.91015625,0.0
1699116065.0313373,852.5390625,178.22265625,-515.625,-1000.0,0.0
1699116065.0352333,-804.6875,-754.39453125,894.04296875,-1000.0,0.0
1699116065.0391293,148.4375,192.3828125,870.60546875,184.5703125,0.0
1699116065.0430255,-1000.0,-1000.0,-365.234375,952.1484375,0.0
1699116065.0469215,133.30078125,-268.06640625,-861.328125,-565.91796875,0.0
1699116065.0508177,-725.5859375,-793.45703125,520.01953125,-1000.0,0.0
1699116065.0547137,379.8828125,291.50390625,-868.65234375,-205.078125,0.0
1699116065.0586097,-1000.0,-1000.0,43.9453125,-847.16796875,0.0
1699116065.062506,-290.52734375,-341.796875,-1000.0,145.5078125,0.0
1699116065.066402,-864.2578125,-871.09375,39.0625,-1000.0,0.0
1699116065.0704136,870.60546875,735.83984375,-873.53515625,-440.4296875,0.0
1699116065.0743098,-740.234375,-871.09375,316.89453125,-887.6953125,0.0
1699116065.0782058,-381.8359375,-851.07421875,-1000.0,257.8125,0.0
1699116065.0821018,-965.8203125,704.1015625,-295.41015625,-1000.0,0.0
1699116065.085998,-864.74609375,-841.796875,-968.26171875,-908.203125,0.0
1699116065.089894,-132.8125,-142.578125,741.69921875,700.68359375,0.0
1699116065.0937903,-845.21484375,-1000.0,-572.265625,604.00390625,0.0
1699116065.0976863,687.01171875,16.11328125,-633.30078125,-957.51953125,0.0
1699116065.1015825,-774.90234375,-761.23046875,796.38671875,-1000.0,0.0
1699116065.1054785,154.78515625,204.58984375,887.6953125,20.99609375,0.0
1699116065.1093748,-1000.0,-1000.0,-335.44921875,-854.00390625,0.0
1699116065.1132708,29.296875,-272.94921875,-958.984375,-199.21875,0.0
1699116065.1172655,-739.74609375,-802.734375,320.3125,-1000.0,0.0
1699116065.1211615,481.4453125,415.52734375,-845.703125,-216.796875,0.0
1699116065.1250577,-1000.0,-1000.0,128.41796875,-832.03125,0.0
1699116065.1289537,-294.921875,-528.3203125,-1000.0,249.0234375,0.0
1699116065.13285,-898.4375,-976.07421875,-38.57421875,-1000.0,0.0
1699116065.1367462,987.3046875,892.08984375,-935.05859375,-548.33984375,0.0
1699116065.1406422,-566.40625,-642.578125,571.77734375,-925.29296875,0.0
1699116065.1445384,-535.64453125,-1000.0,-806.640625,260.7421875,0.0
1699116065.1484344,961.42578125,408.69140625,-438.4765625,-1000.0,0.0
1699116065.1523306,-834.9609375,-788.57421875,969.23828125,-1000.0,0.0
1699116065.1562266,100.5859375,13.18359375,799.8046875,487.3046875,0.0
1699116065.1601229,-996.09375,-1000.0,-498.53515625,827.1484375,0.0
1699116065.164123,390.13671875,-166.015625,-821.77734375,-739.2578125,0.0
1699116065.168019,-738.28125,-783.69140625,591.796875,-1000.0,0.0
1699116065.1719153,170.8984375,223.14453125,-956.0546875,-185.546875,0.0
1699116065.1758113,-1000.0,-1000.0,-156.25,-874.0234375,0.0
1699116065.1797075,-175.78125,-272.4609375,-958.49609375,-70.3125,0.0
1699116065.1836038,-784.1796875,-813.96484375,283.203125,-1000.0,0.0
1699116065.1874998,593.26171875,532.2265625,-856.4453125,-220.21484375,0.0
1699116065.191396,-1000.0,-1000.0,187.98828125,-828.125,0.0
1699116065.195292,-295.8984375,-635.25390625,-1000.0,248.046875,0.0
1699116065.1991882,-928.7109375,937.01171875,-220.21484375,-1000.0,0.0
1699116065.2030845,-914.55078125,-974.12109375,-937.98828125,-646.97265625,0.0
1699116065.2069805,-372.0703125,-405.76171875,651.3671875,-981.4453125,0.0
1699116065.2109652,-657.2265625,-1000.0,-735.83984375,470.21484375,0.0
1699116065.2148612,946.2890625,249.0234375,-485.3515625,-1000.0,0.0
1699116065.2187574,-930.6640625,-867.67578125,867.1875,-1000.0,0.0
1699116065.2226536,-29.296875,-36.1328125,811.5234375,390.13671875,0.0
1699116065.2265496,-1000.0,-1000.0,-356.4453125,936.03515625,0.0
1699116065.2304459,154.296875,-248.046875,-825.68359375,-568.359375,0.0
1699116065.234342,-729.00390625,-800.29296875,558.59375,-1000.0,0.0
1699116065.238238,282.2265625,233.3984375,-910.15625,-194.3359375,0.0
1699116065.2421343,-1000.0,-1000.0,5.859375,-856.4453125,0.0
1699116065.2460306,-284.1796875,-323.2421875,-1000.0,39.0625,0.0
1699116065.2499266,-834.9609375,-843.26171875,51.26953125,-1000.0,0.0
1699116065.2538228,744.62890625,622.55859375,-868.1640625,-331.0546875,0.0
1699116065.2578838,-903.3203125,-1000.0,313.96484375,-854.4921875,0.0
1699116065.26178,-307.12890625,-767.578125,-1000.0,249.0234375,0.0
1699116065.2656763,-951.66015625,782.2265625,-283.203125,-1000.0,0.0
1699116065.2695725,-874.51171875,-864.74609375,-964.35546875,-836.42578125,0.0
1699116065.2734687,-133.7890625,-196.77734375,748.046875,799.8046875,0.0
1699116065.2773647,-824.21875,-1000.0,-559.5703125,578.61328125,0.0
1699116065.281261,711.42578125,74.21875,-612.79296875,-958.49609375,0.0
1699116065.2851572,-779.296875,-757.8125,792.96875,-1000.0,0.0
1699116065.2890534,155.76171875,199.21875,946.2890625,54.6875,0.0
1699116065.2929497,-1000.0,-1000.0,-234.86328125,-951.171875,0.0
1699116065.2968457,31.25,-270.99609375,-914.0625,-381.34765625,0.0
1699116065.300742,-732.91015625,-797.8515625,426.7578125,-1000.0,0.0
1699116065.3047867,388.18359375,351.5625,-834.9609375,-204.1015625,0.0
1699116065.308683,-1000.0,-1000.0,113.28125,-842.7734375,0.0
1699116065.3125792,-276.85546875,-449.21875,-1000.0,145.99609375,0.0
1699116065.3164754,-905.76171875,-935.05859375,-45.8984375,-1000.0,0.0
1699116065.3203716,990.234375,841.30859375,-904.78515625,-440.4296875,0.0
1699116065.3242676,-565.4296875,-714.84375,513.18359375,-884.27734375,0.0
1699116065.3281639,-541.015625,-1000.0,-889.6484375,244.62890625,0.0
1699116065.33206,966.30859375,505.859375,-365.234375,-1000.0,0.0
1699116065.3359563,-832.51953125,-801.26953125,-997.55859375,-1000.0,0.0
1699116065.3398526,-7.8125,-30.2734375,822.75390625,521.484375,0.0
1699116065.3437488,-946.77734375,-1000.0,-458.0078125,675.29296875,0.0
1699116065.347645,513.671875,-103.02734375,-762.6953125,-909.1796875,0.0
1699116065.3516958,-756.8359375,-772.4609375,652.34375,-1000.0,0.0
1699116065.355592,172.8515625,216.30859375,-936.5234375,-77.1484375,0.0
1699116065.3594882,-1000.0,-1000.0,-87.890625,-875.0,0.0
1699116065.3633845,-175.78125,-273.4375,-1000.0,-186.5234375,0.0
1699116065.3672807,-784.1796875,-813.96484375,208.984375,-1000.0,0.0
1699116065.371177,593.26171875,519.04296875,-844.7265625,-214.35546875,0.0
1699116065.3750732,-1000.0,-1000.0,280.76171875,-833.984375,0.0
1699116065.3789694,-295.8984375,-709.9609375,-1000.0,248.53515625,0.0
1699116065.3828657,-931.640625,869.62890625,-244.140625,-1000.0,0.0
1699116065.386762,-915.0390625,-972.16796875,-955.56640625,-641.11328125,0.0
1699116065.3906581,-365.234375,-420.41015625,723.14453125,-976.5625,0.0
1699116065.3945544,-728.02734375,-1000.0,-628.41796875,333.984375,0.0
1699116065.3985868,855.46875,148.4375,-575.1953125,-1000.0,0.0
1699116065.402483,-808.59375,-764.16015625,824.21875,-1000.0,0.0
1699116065.4063792,148.4375,145.99609375,974.12109375,310.05859375,0.0
1699116065.4102755,-1000.0,-1000.0,-222.16796875,837.40234375,0.0
1699116065.4141717,136.71875,-257.8125,-895.5078125,-734.86328125,0.0
1699116065.418068,-722.65625,-798.33984375,473.14453125,-1000.0,0.0
1699116065.4219642,283.203125,235.83984375,-856.4453125,-185.05859375,0.0
1699116065.4258604,-1000.0,-1000.0,104.4921875,-876.953125,0.0
1699116065.4297566,-284.1796875,-339.35546875,-1000.0,-66.40625,0.0
1699116065.433653,-838.37890625,-848.6328125,-3.41796875,-1000.0,0.0
1699116065.4375494,748.046875,623.046875,-872.55859375,-278.80859375,0.0
1699116065.4414456,-904.296875,-1000.0,407.2265625,-848.14453125,0.0
1699116065.4454613,-366.2109375,-792.48046875,-1000.0,248.53515625,0.0
1699116065.4493575,-972.16796875,750.48828125,-300.78125,-1000.0,0.0
1699116065.4532537,-857.421875,-852.5390625,-978.02734375,-784.1796875,0.0
1699116065.45715,-166.015625,-226.07421875,821.2890625,871.58203125,0.0
1699116065.4610465,-705.56640625,-1000.0,-495.60546875,471.6796875,0.0
1699116065.4649427,833.984375,203.61328125,-465.8203125,-1000.0,0.0
1699116065.468839,-786.62109375,-746.09375,899.4140625,-1000.0,0.0
1699116065.4727352,123.53515625,182.12890625,984.86328125,186.5234375,0.0
1699116065.4766314,-1000.0,-1000.0,-210.9375,942.3828125,0.0
1699116065.4805276,251.46484375,-180.6640625,-774.4140625,-578.125,0.0
1699116065.484424,-734.375,-767.08984375,600.5859375,-1000.0,0.0
1699116065.4883204,461.42578125,372.55859375,-828.61328125,-194.3359375,0.0
1699116065.4923208,-1000.0,-1000.0,65.91796875,-861.328125,0.0
1699116065.496217,-194.3359375,-279.296875,-950.1953125,42.96875,0.0
1699116065.5001132,-861.81640625,-873.046875,325.1953125,-1000.0,0.0
1699116065.5040095,962.890625,867.67578125,-861.328125,-427.734375,0.0
1699116065.507906,-559.5703125,-748.046875,429.19921875,-895.01953125,0.0
1699116065.5118022,-340.8203125,-612.3046875,-933.10546875,259.765625,0.0
1699116065.5156984,-968.26171875,933.59375,-231.4453125,-1000.0,0.0
1699116065.5195947,-838.37890625,-847.65625,-950.68359375,-906.25,0.0
1699116065.5234911,41.50390625,-68.359375,723.6328125,710.9375,0.0
1699116065.5273874,-643.5546875,-1000.0,-632.8125,493.1640625,0.0
1699116065.5312836,819.82421875,321.2890625,-350.09765625,-995.1171875,0.0
1699116065.5351799,-784.1796875,-744.62890625,937.5,-1000.0,0.0
1699116065.5391634,143.06640625,180.17578125,979.00390625,-20.99609375,0.0
1699116065.5430598,-1000.0,-1000.0,-197.75390625,918.9453125,0.0
1699116065.546956,131.34765625,-217.7734375,-806.15234375,-541.9921875,0.0
1699116065.5508523,-743.65234375,-782.2265625,577.1484375,-1000.0,0.0
1699116065.5547485,561.5234375,488.76953125,-861.328125,-201.66015625,0.0
1699116065.558645,-1000.0,-1000.0,56.15234375,-850.5859375,0.0
1699116065.5625412,-292.48046875,-286.1328125,-1000.0,147.4609375,0.0
1699116065.5664375,-931.15234375,-903.80859375,165.52734375,-1000.0,0.0
1699116065.570334,-899.90234375,985.83984375,-898.4375,-533.69140625,0.0
1699116065.5742302,-283.203125,-550.78125,475.5859375,-929.19921875,0.0
1699116065.5781264,-342.7734375,-726.07421875,-930.6640625,249.0234375,0.0
1699116065.582023,-981.4453125,857.421875,-322.75390625,-1000.0,0.0
1699116065.586013,-828.61328125,-823.2421875,-978.515625,-1000.0,0.0
1699116065.5899093,54.19921875,65.4296875,700.1953125,346.19140625,0.0
1699116065.5938058,-705.078125,-1000.0,-654.296875,618.65234375,0.0
1699116065.597702,777.34375,139.6484375,-469.7265625,-958.0078125,0.0
1699116065.6015985,-833.984375,-789.0625,826.66015625,-1000.0,0.0
1699116065.6054947,166.015625,100.5859375,-953.61328125,-84.9609375,0.0
1699116065.609391,-1000.0,-1000.0,-114.2578125,-941.89453125,0.0
1699116065.6132874,30.2734375,-276.85546875,-891.6015625,-229.4921875,0.0
1699116065.6171837,-801.7578125,-813.96484375,495.1171875,-1000.0,0.0
1699116065.62108,794.43359375,592.7734375,-872.0703125,-210.9375,0.0
1699116065.6249764,-766.11328125,-1000.0,66.89453125,-836.42578125,0.0
1699116065.6288726,-330.56640625,-363.76953125,-1000.0,241.69921875,0.0
1699116065.632937,-939.94140625,-957.03125,-5.37109375,-1000.0,0.0
1699116065.6368332,-870.60546875,-912.59765625,-918.9453125,-747.0703125,0.0
1699116065.6407297,-182.12890625,-333.49609375,505.37109375,904.296875,0.0
1699116065.644626,-428.7109375,-882.32421875,-918.45703125,280.2734375,0.0
1699116065.6485224,975.5859375,683.10546875,-340.33203125,-1000.0,0.0
1699116065.6524186,-818.84765625,-787.59765625,-991.69921875,-1000.0,0.0
1699116065.656315,86.9140625,163.0859375,700.1953125,220.21484375,0.0
1699116065.6602113,-866.2109375,-1000.0,-639.6484375,756.34765625,0.0
1699116065.6641078,548.33984375,-11.23046875,-601.07421875,-808.59375,0.0
1699116065.668004,-748.53515625,-736.328125,739.2578125,-1000.0,0.0
1699116065.6719005,349.12109375,243.1640625,-917.96875,-187.98828125,0.0
1699116065.6757967,-1000.0,-1000.0,-116.69921875,-883.7890625,0.0
1699116065.679844,-20.99609375,-276.85546875,-913.0859375,-60.546875,0.0
1699116065.6837401,-818.359375,-836.42578125,468.26171875,-1000.0,0.0
1699116065.6876366,870.60546875,712.40234375,-875.9765625,-409.66796875,0.0
1699116065.691533,-664.0625,-947.265625,79.58984375,-898.4375,0.0
1699116065.6954293,-336.9140625,-452.1484375,-1000.0,259.765625,0.0
1699116065.6993258,-954.1015625,-991.69921875,-54.6875,-1000.0,0.0
1699116065.703222,-850.5859375,-880.859375,-918.45703125,-906.25,0.0
1699116065.7071185,-76.171875,-229.4921875,494.62890625,709.47265625,0.0
1699116065.711015,-505.859375,-938.4765625,-933.10546875,500.0,0.0
1699116065.7149112,921.875,593.75,-340.33203125,-1000.0,0.0
1699116065.7188077,-798.33984375,-771.484375,-991.69921875,-1000.0,0.0
1699116065.722704,89.84375,164.55078125,687.5,81.54296875,0.0
1699116065.726734,-907.2265625,-1000.0,-655.2734375,938.4765625,0.0
1699116065.7306304,485.83984375,-49.31640625,-667.48046875,-553.7109375,0.0
1699116065.7345269,-752.44140625,-741.69921875,679.6875,-1000.0,0.0
1699116065.738423,452.63671875,344.23828125,-901.85546875,-192.87109375,0.0
1699116065.7423196,-1000.0,-1000.0,-80.56640625,-863.76953125,0.0
1699116065.746216,-114.74609375,-281.73828125,-957.03125,44.921875,0.0
1699116065.7501123,-864.2578125,-866.69921875,392.578125,-1000.0,0.0
1699116065.7540088,-1000.0,846.19140625,-868.65234375,-520.99609375,0.0
1699116065.7579052,-468.26171875,-779.78515625,166.9921875,-940.91796875,0.0
1699116065.7618015,-347.65625,-557.6171875,-1000.0,265.13671875,0.0
1699116065.765698,-968.26171875,959.9609375,-182.12890625,-1000.0,0.0
1699116065.7695944,-834.9609375,-852.05078125,-936.5234375,-1000.0,0.0
1699116065.7736077,32.71484375,-91.796875,525.390625,530.2734375,0.0
1699116065.7775042,-572.265625,-1000.0,-895.5078125,604.00390625,0.0
1699116065.7814007,861.328125,420.8984375,-378.90625,-946.77734375,0.0
1699116065.7852972,-785.15625,-750.48828125,954.58984375,-1000.0,0.0
1699116065.7891934,114.2578125,173.33984375,819.82421875,-79.58984375,0.0
1699116065.7930899,-1000.0,-1000.0,-484.86328125,-979.4921875,0.0
1699116065.7969863,313.96484375,-152.34375,-787.109375,-364.74609375,0.0
1699116065.8008828,-754.8828125,-765.13671875,595.21484375,-1000.0,0.0
1699116065.804779,556.15234375,462.890625,-880.37109375,-209.47265625,0.0
1699116065.8086755,-1000.0,-1000.0,-64.94140625,-840.8203125,0.0
1699116065.812572,-281.73828125,-286.1328125,-953.61328125,249.0234375,0.0
1699116065.8164685,-927.734375,-899.90234375,346.19140625,-1000.0,0.0
1699116065.8204904,-902.34375,973.14453125,-877.44140625,-636.23046875,0.0
1699116065.8243868,-284.1796875,-580.078125,226.5625,-978.02734375,0.0
1699116065.8282833,-343.26171875,-679.6875,-1000.0,264.6484375,0.0
1699116065.8321795,-980.95703125,893.06640625,-259.765625,-1000.0,0.0
1699116065.836076,-826.171875,-828.125,-962.890625,-1000.0,0.0
1699116065.8399725,41.9921875,42.96875,574.70703125,336.9140625,0.0
1699116065.843869,-655.2734375,-1000.0,-812.01171875,699.70703125,0.0
1699116065.8477654,804.19921875,198.2421875,-422.36328125,-885.7421875,0.0
1699116065.851662,-784.66796875,-733.3984375,891.6015625,-1000.0,0.0
1699116065.8555582,251.953125,184.5703125,932.12890625,-186.5234375,0.0
1699116065.8594546,-1000.0,-1000.0,-320.80078125,-889.6484375,0.0
1699116065.863351,56.640625,-269.53125,-879.39453125,-98.6328125,0.0
1699116065.8673553,-790.52734375,-808.59375,519.53125,-1000.0,0.0
1699116065.8712518,768.5546875,590.33203125,-884.765625,-317.3828125,0.0
1699116065.8751483,-795.41015625,-1000.0,24.90234375,-863.76953125,0.0
1699116065.8790448,-326.171875,-341.30859375,-1000.0,255.37109375,0.0
1699116065.882941,-940.91796875,-949.70703125,69.82421875,-1000.0,0.0
1699116065.8868375,-871.58203125,-911.62109375,-925.78125,-779.296875,0.0
1699116065.890734,-182.6171875,-346.19140625,512.6953125,876.46484375,0.0
1699116065.8946304,-428.7109375,-826.171875,-876.953125,378.90625,0.0
1699116065.898527,974.609375,750.48828125,-350.09765625,-1000.0,0.0
1699116065.9024234,-813.96484375,-794.43359375,-976.5625,-1000.0,0.0
1699116065.9063199,70.80078125,157.71484375,615.234375,111.81640625,0.0
1699116065.9102163,-808.10546875,-1000.0,-751.953125,816.40625,0.0
1699116065.914203,625.0,43.45703125,-585.9375,-718.26171875,0.0
1699116065.9180994,-764.6484375,-729.4921875,734.375,-1000.0,0.0
1699116065.9219959,358.3984375,261.23046875,-933.59375,-196.2890625,0.0
1699116065.9258924,-1000.0,-1000.0,-113.28125,-864.2578125,0.0
1699116065.9297888,-73.2421875,-278.3203125,-922.8515625,42.96875,0.0
1699116065.9336853,-850.09765625,-844.23828125,449.70703125,-1000.0,0.0
1699116065.9375818,952.1484375,752.9296875,-873.53515625,-427.734375,0.0
1699116065.9414783,-551.7578125,-903.3203125,88.37890625,-893.06640625,0.0
1699116065.9453747,-349.12109375,-464.84375,-1000.0,251.46484375,0.0
1699116065.9492712,-954.58984375,-996.09375,-106.93359375,-1000.0,0.0
1699116065.9531677,-847.65625,-874.51171875,-942.87109375,-979.4921875,0.0
1699116065.9570642,-76.171875,-199.21875,518.06640625,598.14453125,0.0
1699116065.9610357,-506.34765625,-947.75390625,-889.6484375,505.859375,0.0
1699116065.9649322,921.875,573.73046875,-333.984375,-995.1171875,0.0
1699116065.9688287,-801.26953125,-761.71875,985.83984375,-1000.0,0.0
1699116065.9727252,98.6328125,148.4375,734.375,-20.5078125,0.0
1699116065.9766219,-935.546875,-1000.0,-527.83203125,919.43359375,0.0
1699116065.9805183,440.91796875,10.7421875,-619.62890625,-542.48046875,0.0
1699116065.9844148,-764.6484375,-758.30078125,683.59375,-1000.0,0.0
1699116065.9883113,548.33984375,389.16015625,-911.1328125,-201.66015625,0.0
1699116065.9922078,-1000.0,-1000.0,-34.1796875,-850.5859375,0.0
1699116065.9961042,-198.73046875,-285.64453125,-985.3515625,147.4609375,0.0
1699116066.0000007,-889.16015625,-874.0234375,290.0390625,-1000.0,0.0
1699116066.0038972,-941.40625,880.37109375,-875.9765625,-533.69140625,0.0
1699116066.0079412,-377.44140625,-731.93359375,184.08203125,-929.19921875,0.0
1699116066.0118377,-353.02734375,-587.890625,-1000.0,250.9765625,0.0
1699116066.0157342,-971.6796875,942.87109375,-234.86328125,-1000.0,0.0
1699116066.0196307,-831.54296875,-843.26171875,-969.7265625,-1000.0,0.0
1699116066.0235274,37.109375,-31.25,581.0546875,291.50390625,0.0
1699116066.0274239,-606.4453125,-1000.0,-796.875,522.94921875,0.0
1699116066.0313203,837.890625,355.95703125,-412.59765625,-929.6875,0.0
1699116066.0352168,-790.52734375,-744.62890625,881.34765625,-1000.0,0.0
1699116066.0391133,204.1015625,177.734375,921.38671875,-186.5234375,0.0
1699116066.0430098,-1000.0,-1000.0,-293.9453125,-900.390625,0.0
1699116066.0469062,130.859375,-210.44921875,-821.77734375,-171.875,0.0
1699116066.0508027,-770.99609375,-781.73828125,551.7578125,-1000.0,0.0
1699116066.0548527,699.21875,510.25390625,-892.578125,-211.9140625,0.0
1699116066.0587492,-873.046875,-1000.0,0.0,-833.984375,0.0
1699116066.062646,-321.2890625,-285.64453125,-1000.0,239.74609375,0.0
1699116066.0665424,-924.8046875,-914.0625,143.06640625,-1000.0,0.0
1699116066.0704389,-898.92578125,-978.02734375,-899.90234375,-775.87890625,0.0
1699116066.0743353,-283.203125,-490.72265625,368.1640625,873.046875,0.0
1699116066.078232,-342.7734375,-704.58984375,-1000.0,286.1328125,0.0
1699116066.0821285,-980.95703125,873.046875,-321.77734375,-1000.0,0.0
1699116066.086025,-834.9609375,-820.3125,-978.515625,-1000.0,0.0
1699116066.0899215,74.70703125,122.55859375,621.58203125,201.171875,0.0
1699116066.093818,-790.52734375,-1000.0,-743.65234375,838.8671875,0.0
1699116066.0977147,649.4140625,127.9296875,-499.51171875,-745.1171875,0.0
1699116066.101747,-761.23046875,-727.05078125,806.640625,-1000.0,0.0
1699116066.1056435,346.19140625,186.03515625,989.2578125,-96.19140625,0.0
1699116066.10954,-1000.0,-1000.0,-201.171875,-894.53125,0.0
1699116066.1134367,16.6015625,-274.90234375,-877.9296875,-59.5703125,0.0
1699116066.1173332,-801.26953125,-819.82421875,502.44140625,-1000.0,0.0
1699116066.1212296,829.1015625,639.6484375,-885.25390625,-416.9921875,0.0
1699116066.1251264,-717.28515625,-1000.0,47.36328125,-901.3671875,0.0
1699116066.1290228,-337.890625,-364.2578125,-1000.0,261.71875,0.0
1699116066.1329193,-942.3828125,-961.42578125,47.36328125,-1000.0,0.0
1699116066.136816,-866.69921875,-895.99609375,-928.7109375,-906.25,0.0
1699116066.1407125,-179.6875,-278.80859375,499.0234375,709.47265625,0.0
1699116066.144609,-502.9296875,-858.3984375,-893.5546875,500.48828125,0.0
1699116066.1486483,943.84765625,703.61328125,-344.7265625,-1000.0,0.0
1699116066.152545,-810.05859375,-786.62109375,-999.51171875,-1000.0,0.0
1699116066.1564415,93.75,161.62109375,661.62109375,81.54296875,0.0
1699116066.160338,-907.71484375,-1000.0,-668.45703125,938.4765625,0.0
1699116066.1642346,485.3515625,-1.46484375,-606.4453125,-553.7109375,0.0
1699116066.168131,-750.9765625,-733.88671875,714.84375,-1000.0,0.0
1699116066.1720278,449.21875,302.24609375,-921.38671875,-192.87109375,0.0
1699116066.1759243,-1000.0,-1000.0,-49.31640625,-864.2578125,0.0
1699116066.1798208,-91.796875,-278.3203125,-934.5703125,44.43359375,0.0
1699116066.1837175,-842.28515625,-860.3515625,396.97265625,-1000.0,0.0
1699116066.187614,950.1953125,817.87109375,-874.51171875,-520.99609375,0.0
1699116066.1915107,-552.24609375,-819.3359375,126.46484375,-940.4296875,0.0
1699116066.195511,-345.21484375,-501.953125,-1000.0,265.13671875,0.0
1699116066.1994076,-963.37890625,985.83984375,-149.90234375,-1000.0,0.0
1699116066.2033043,-840.8203125,-860.83984375,-958.0078125,-1000.0,0.0
1699116066.2072008,-5.37109375,-118.65234375,556.640625,530.76171875,0.0
1699116066.2110975,-582.51953125,-995.1171875,-833.49609375,600.09765625,0.0
1699116066.214994,866.69921875,488.28125,-339.35546875,-941.40625,0.0
1699116066.2188907,-788.0859375,-756.34765625,976.5625,-1000.0,0.0
1699116066.2227871,115.234375,169.921875,796.38671875,-144.53125,0.0
1699116066.2266836,-1000.0,-1000.0,-494.62890625,-996.58203125,0.0
1699116066.2305803,313.4765625,-118.1640625,-766.11328125,-355.46875,0.0
1699116066.2344768,-749.51171875,-758.30078125,604.98046875,-1000.0,0.0
1699116066.2383735,548.828125,451.171875,-895.99609375,-207.51953125,0.0
1699116066.2423823,-1000.0,-1000.0,-28.3203125,-840.8203125,0.0
1699116066.246279,-193.84765625,-285.64453125,-987.3046875,248.53515625,0.0
1699116066.2501755,-898.92578125,-898.92578125,278.80859375,-1000.0,0.0
1699116066.2540722,-924.8046875,971.6796875,-877.9296875,-636.23046875,0.0
1699116066.257969,-313.4765625,-588.37890625,249.0234375,-976.07421875,0.0
1699116066.2618654,-348.14453125,-626.46484375,-1000.0,258.30078125,0.0
1699116066.265762,-978.02734375,924.31640625,-243.1640625,-1000.0,0.0
1699116066.2696586,-827.1484375,-833.49609375,-972.16796875,-1000.0,0.0
1699116066.2735553,42.96875,33.69140625,580.078125,251.46484375,0.0
1699116066.2774518,-655.2734375,-1000.0,-794.43359375,693.84765625,0.0
1699116066.2813485,802.24609375,271.97265625,-419.921875,-879.39453125,0.0
1699116066.285245,-778.80859375,-736.328125,881.34765625,-1000.0,0.0
1699116066.2892358,241.69921875,180.6640625,915.52734375,-189.453125,0.0
1699116066.2931325,-1000.0,-1000.0,-330.56640625,-882.32421875,0.0
1699116066.297029,128.90625,-242.67578125,-845.703125,-71.2890625,0.0
1699116066.3009257,-782.71484375,-798.828125,542.48046875,-1000.0,0.0
1699116066.3048222,751.953125,583.0078125,-898.92578125,-319.3359375,0.0
1699116066.308719,-804.6875,-1000.0,8.30078125,-861.328125,0.0
1699116066.3126156,-324.21875,-292.48046875,-1000.0,247.0703125,0.0
1699116066.316512,-940.91796875,-933.10546875,123.046875,-1000.0,0.0
1699116066.3204088,-871.58203125,-916.9921875,-923.33984375,-865.72265625,0.0
1699116066.3243053,-182.12890625,-353.02734375,451.66015625,764.16015625,0.0
1699116066.328202,-429.19921875,-781.25,-932.6171875,395.5078125,0.0
1699116066.3320987,974.12109375,799.8046875,-337.890625,-1000.0,0.0
1699116066.3360734,-812.01171875,-802.24609375,-987.79296875,-1000.0,0.0
1699116066.3399699,65.4296875,155.76171875,664.0625,85.9375,0.0
1699116066.3438666,-787.59765625,-1000.0,-689.94140625,895.99609375,0.0
1699116066.3477633,650.87890625,70.3125,-522.4609375,-612.3046875,0.0
1699116066.3516598,-766.6015625,-726.5625,774.4140625,-1000.0,0.0
1699116066.3555565,355.95703125,261.23046875,-947.75390625,-193.84765625,0.0
1699116066.3594532,-1000.0,-1000.0,-97.65625,-861.81640625,0.0
1699116066.3633497,-45.8984375,-278.80859375,-902.34375,42.96875,0.0
1699116066.3672464,-846.19140625,-843.75,467.7734375,-1000.0,0.0
1699116066.371143,949.21875,753.41796875,-882.32421875,-427.734375,0.0
1699116066.3750396,-550.29296875,-902.34375,77.63671875,-892.08984375,0.0
1699116066.3789363,-349.12109375,-448.2421875,-1000.0,247.0703125,0.0
1699116066.3829849,-954.58984375,-989.74609375,-62.5,-1000.0,0.0
1699116066.3868816,-847.16796875,-875.48828125,-947.265625,-1000.0,0.0
1699116066.3907783,-76.171875,-195.80078125,546.38671875,534.66796875,0.0
1699116066.3946748,-505.859375,-935.546875,-838.37890625,541.9921875,0.0
1699116066.3985715,924.31640625,590.33203125,-343.75,-982.91015625,0.0
1699116066.4024682,-808.10546875,-770.01953125,993.1640625,-1000.0,0.0
1699116066.406365,116.2109375,165.52734375,718.26171875,-53.7109375,0.0
1699116066.4102614,-990.234375,-1000.0,-602.5390625,-969.7265625,0.0
1699116066.414158,355.46875,-62.01171875,-658.69140625,-369.140625,0.0
1699116066.4180548,-753.90625,-744.140625,684.5703125,-1000.0,0.0
1699116066.4219515,548.33984375,389.16015625,-917.96875,-201.66015625,0.0
1699116066.425848,-1000.0,-1000.0,-48.33984375,-848.14453125,0.0
1699116066.4298792,-198.73046875,-284.66796875,-954.58984375,147.4609375,0.0
1699116066.433776,-889.16015625,-878.90625,362.3046875,-1000.0,0.0
1699116066.4376726,-941.40625,895.99609375,-874.0234375,-622.0703125,0.0
1699116066.441569,-376.953125,-708.49609375,189.94140625,-985.83984375,0.0
1699116066.4454658,-353.02734375,-590.8203125,-1000.0,267.578125,0.0
1699116066.4493625,-973.14453125,940.91796875,-206.0546875,-1000.0,0.0
1699116066.4532592,-831.54296875,-843.26171875,-970.21484375,-1000.0,0.0
1699116066.457156,42.96875,-10.7421875,586.42578125,336.9140625,0.0
1699116066.4610527,-655.2734375,-1000.0,-788.0859375,700.1953125,0.0
1699116066.4649491,802.734375,318.84765625,-408.69140625,-884.27734375,0.0
1699116066.4688458,-778.80859375,-740.72265625,903.3203125,-1000.0,0.0
1699116066.4727426,241.2109375,179.19921875,899.4140625,-176.7578125,0.0
1699116066.4767795,-1000.0,-1000.0,-349.609375,-907.2265625,0.0
1699116066.4806762,124.51171875,-226.07421875,-829.58984375,-165.52734375,0.0
1699116066.484573,-767.578125,-787.59765625,550.78125,-1000.0,0.0
1699116066.4884696,698.2421875,524.90234375,-889.6484375,-312.01171875,0.0
1699116066.4923663,-873.046875,-1000.0,16.11328125,-868.1640625,0.0
1699116066.496263,-321.2890625,-284.66796875,-1000.0,255.859375,0.0
1699116066.5001597,-929.6875,-922.36328125,154.78515625,-1000.0,0.0
1699116066.5040565,-892.578125,-954.58984375,-914.55078125,-779.78515625,0.0
1699116066.5079532,-285.15625,-432.6171875,464.84375,874.51171875,0.0
1699116066.5118496,-442.3828125,-755.859375,-931.640625,386.23046875,0.0
1699116066.5157464,985.3515625,825.1953125,-342.28515625,-1000.0,0.0
1699116066.519643,-818.359375,-808.59375,-975.5859375,-1000.0,0.0
1699116066.5236638,66.89453125,144.04296875,633.7890625,210.9375,0.0
1699116066.5275607,-787.59765625,-1000.0,-727.05078125,829.1015625,0.0
1699116066.5314574,649.4140625,93.26171875,-509.27734375,-726.5625,0.0
1699116066.5353541,-761.23046875,-727.5390625,802.734375,-1000.0,0.0
1699116066.5392509,346.19140625,195.80078125,-960.9375,-184.5703125,0.0
1699116066.5431476,-1000.0,-1000.0,-130.859375,-883.30078125,0.0
1699116066.5470443,16.6015625,-272.94921875,-892.08984375,-60.05859375,0.0
1699116066.550941,-801.26953125,-832.03125,488.28125,-1000.0,0.0
1699116066.5548377,829.1015625,687.01171875,-877.9296875,-416.9921875,0.0
1699116066.5587344,-718.26171875,-975.09765625,61.03515625,-901.85546875,0.0
1699116066.5626311,-333.49609375,-413.0859375,-1000.0,261.23046875,0.0
1699116066.5665278,-950.1953125,-978.515625,-15.13671875,-1000.0,0.0
1699116066.5705335,-856.93359375,-886.23046875,-937.5,-906.25,0.0
1699116066.5744302,-115.234375,-238.28125,529.296875,710.44921875,0.0
1699116066.578327,-513.671875,-916.015625,-858.3984375,495.1171875,0.0
1699116066.5822237,926.7578125,625.48828125,-343.26171875,-998.53515625,0.0
1699116066.5861204,-801.26953125,-775.390625,995.60546875,-1000.0,0.0
1699116066.590017,90.8203125,164.0625,714.35546875,10.7421875,0.0
1699116066.593914,-907.2265625,-1000.0,-604.00390625,925.29296875,0.0
1699116066.5978107,486.81640625,-40.0390625,-611.81640625,-546.38671875,0.0
1699116066.6017075,-757.8125,-740.234375,712.890625,-1000.0,0.0
1699116066.6056042,460.44921875,345.703125,-918.9453125,-206.0546875,0.0
1699116066.609501,-1000.0,-1000.0,-48.33984375,-835.9375,0.0
1699116066.6133976,-187.98828125,-277.83203125,-947.265625,110.83984375,0.0
1699116066.6173873,-875.48828125,-878.90625,386.23046875,-1000.0,0.0
1699116066.6212842,-999.0234375,840.33203125,-871.09375,-352.05078125,0.0
1699116066.625181,-488.28125,-763.18359375,163.57421875,-950.1953125,0.0
1699116066.6290777,-345.703125,-566.40625,-1000.0,256.8359375,0.0
1699116066.6329744,-967.7734375,956.54296875,-178.7109375,-1000.0,0.0
1699116066.636871,-835.44921875,-851.5625,-983.3984375,-1000.0,0.0
1699116066.6407678,32.71484375,-87.890625,670.8984375,470.21484375,0.0
1699116066.6446645,-572.265625,-1000.0,-665.0390625,603.515625,0.0
1699116066.6485615,865.234375,398.92578125,-404.296875,-942.87109375,0.0
1699116066.6524582,-798.828125,-750.0,931.15234375,-1000.0,0.0
1699116066.656355,149.4140625,176.26953125,855.46875,-176.26953125,0.0
1699116066.6602516,-1000.0,-1000.0,-422.36328125,-922.8515625,0.0
1699116066.6642466,133.30078125,-183.59375,-800.78125,-213.8671875,0.0
1699116066.6681433,-750.9765625,-774.4140625,576.171875,-1000.0,0.0
1699116066.67204,593.26171875,488.28125,-882.32421875,-210.9375,0.0
1699116066.675937,-990.234375,-1000.0,10.7421875,-835.9375,0.0
1699116066.6798337,-298.828125,-287.59765625,-1000.0,249.0234375,0.0
1699116066.6837304,-929.6875,-903.80859375,209.47265625,-1000.0,0.0
1699116066.687627,-899.90234375,990.72265625,-887.20703125,-636.71875,0.0
1699116066.6915238,-283.203125,-550.78125,366.2109375,-975.5859375,0.0
1699116066.6954207,-342.7734375,-694.3359375,-1000.0,256.8359375,0.0
1699116066.6993175,-980.95703125,881.8359375,-299.8046875,-1000.0,0.0
1699116066.7032142,-833.49609375,-824.21875,-983.3984375,-1000.0,0.0
1699116066.707111,69.3359375,87.890625,645.01953125,225.09765625,0.0
1699116066.7111773,-772.4609375,-1000.0,-707.03125,737.3046875,0.0
1699116066.715074,678.22265625,160.64453125,-446.77734375,-830.078125,0.0
1699116066.7189708,-762.20703125,-729.98046875,851.5625,-1000.0,0.0
1699116066.7228677,250.9765625,185.546875,998.53515625,-188.96484375,0.0
1699116066.7267644,-1000.0,-1000.0,-175.29296875,-880.37109375,0.0
1699116066.7306612,34.1796875,-276.85546875,-846.6796875,-63.96484375,0.0
1699116066.734558,-809.5703125,-813.4765625,535.64453125,-1000.0,0.0
1699116066.7384548,831.54296875,612.3046875,-883.30078125,-320.3125,0.0
1699116066.7423515,-717.28515625,-1000.0,58.59375,-860.3515625,0.0
1699116066.7462485,-337.890625,-354.4921875,-1000.0,243.65234375,0.0
1699116066.7501452,-941.89453125,-955.56640625,25.390625,-1000.0,0.0
1699116066.754042,-867.1875,-904.78515625,-936.03515625,-905.2734375,0.0
1699116066.7580922,-180.17578125,-316.89453125,543.9453125,712.40234375,0.0
1699116066.7619889,-483.3984375,-843.26171875,-841.796875,409.1796875,0.0
1699116066.7658858,952.63671875,727.5390625,-343.75,-1000.0,0.0
1699116066.7697825,-812.98828125,-791.9921875,997.0703125,-1000.0,0.0
1699116066.7736793,95.21484375,161.62109375,714.84375,74.21875,0.0
1699116066.7775762,-908.203125,-1000.0,-593.75,940.91796875,0.0
1699116066.781473,485.3515625,4.39453125,-595.21484375,-553.7109375,0.0
1699116066.7853699,-750.9765625,-732.91015625,723.14453125,-1000.0,0.0
1699116066.7892666,449.21875,291.015625,-914.55078125,-192.87109375,0.0
1699116066.7931635,-1000.0,-1000.0,-19.04296875,-864.2578125,0.0
1699116066.7970603,-91.30859375,-280.2734375,-918.45703125,44.921875,0.0
1699116066.800957,-842.28515625,-850.09765625,412.59765625,-1000.0,0.0
1699116066.8049917,950.1953125,777.34375,-865.234375,-520.99609375,0.0
1699116066.8088884,-551.7578125,-872.0703125,119.62890625,-940.4296875,0.0
1699116066.8127854,-349.12109375,-495.60546875,-1000.0,265.13671875,0.0
1699116066.816682,-958.0078125,987.79296875,-125.0,-1000.0,0.0
1699116066.820579,-845.21484375,-867.1875,-963.37890625,-1000.0,0.0
1699116066.8244758,-68.84765625,-138.18359375,607.421875,529.78515625,0.0
1699116066.8283727,-599.12109375,-1000.0,-757.32421875,605.95703125,0.0
1699116066.8322694,876.46484375,474.12109375,-346.19140625,-949.21875,0.0
1699116066.8361664,-792.96875,-757.32421875,985.83984375,-1000.0,0.0
1699116066.840063,117.1875,171.38671875,790.0390625,-48.33984375,0.0
1699116066.84396,-1000.0,-1000.0,-500.0,-971.19140625,0.0
1699116066.8478568,313.96484375,-132.32421875,-755.37109375,-368.65234375,0.0
1699116066.8518758,-751.46484375,-758.30078125,619.140625,-1000.0,0.0
1699116066.8557725,552.24609375,416.9921875,-888.671875,-208.49609375,0.0
1699116066.8596694,-1000.0,-1000.0,-18.06640625,-825.68359375,0.0
1699116066.8635662,-240.72265625,-281.73828125,-983.88671875,93.26171875,0.0
1699116066.867463,-900.390625,-893.06640625,290.52734375,-1000.0,0.0
1699116066.87136,-935.546875,940.4296875,-876.953125,-343.26171875,0.0
1699116066.8752568,-380.37109375,-633.7890625,307.6171875,993.65234375,0.0
1699116066.8791537,-351.5625,-655.2734375,-1000.0,262.20703125,0.0
1699116066.8830504,-972.65625,906.25,-245.1171875,-1000.0,0.0
1699116066.8869474,-831.54296875,-833.0078125,-972.65625,-1000.0,0.0
1699116066.8908443,42.96875,25.390625,632.32421875,336.9140625,0.0
1699116066.894741,-655.2734375,-1000.0,-723.6328125,699.70703125,0.0
1699116066.8987656,802.734375,233.88671875,-438.4765625,-884.27734375,0.0
1699116066.9026625,-778.80859375,-735.3515625,887.6953125,-1000.0,0.0
1699116066.9065595,241.69921875,183.10546875,932.6171875,-177.24609375,0.0
1699116066.9104562,-1000.0,-1000.0,-295.8984375,-907.2265625,0.0
1699116066.9143531,123.046875,-256.34765625,-843.75,-165.52734375,0.0
1699116066.91825,-768.06640625,-799.8046875,539.55078125,-1000.0,0.0
1699116066.9221468,698.2421875,558.10546875,-879.8828125,-311.5234375,0.0
1699116066.9260437,-873.046875,-1000.0,49.31640625,-867.67578125,0.0
1699116066.9299407,-321.2890625,-308.10546875,-1000.0,255.859375,0.0
1699116066.9338374,-929.6875,-935.05859375,90.8203125,-1000.0,0.0
1699116066.9377344,-892.08984375,-933.59375,-917.48046875,-779.296875,0.0
1699116066.9416313,-284.1796875,-388.671875,488.76953125,875.48828125,0.0
1699116066.94564,-442.87109375,-790.0390625,-906.73828125,383.7890625,0.0
1699116066.949537,984.86328125,788.0859375,-340.8203125,-1000.0,0.0
1699116066.9534338,-818.359375,-801.7578125,-982.91015625,-1000.0,0.0
1699116066.9573307,66.89453125,155.76171875,669.43359375,179.19921875,0.0
1699116066.9612277,-788.0859375,-1000.0,-679.6875,825.1953125,0.0
1699116066.9651246,651.3671875,70.80078125,-498.046875,-725.09765625,0.0
1699116066.9690213,-768.06640625,-727.5390625,815.91796875,-1000.0,0.0
1699116066.9729183,358.3984375,227.05078125,-958.984375,-196.77734375,0.0
1699116066.9768152,-1000.0,-1000.0,-118.65234375,-863.76953125,0.0
1699116066.9807122,-80.56640625,-275.87890625,-893.5546875,42.96875,0.0
1699116066.984609,-814.453125,-837.40234375,483.3984375,-1000.0,0.0
1699116066.9885058,839.35546875,715.8203125,-873.046875,-427.734375,0.0
1699116066.992499,-725.09765625,-943.84765625,79.1015625,-894.53125,0.0
1699116066.996396,-329.58984375,-440.4296875,-1000.0,257.32421875,0.0
1699116067.000293,-954.1015625,-987.79296875,-32.71484375,-1000.0,0.0
1699116067.0041897,-852.05078125,-879.8828125,-942.3828125,-927.734375,0.0
1699116067.0080867,-76.171875,-221.19140625,564.453125,678.22265625,0.0
1699116067.0119836,-505.859375,-932.12890625,-806.15234375,497.0703125,0.0
1699116067.0158806,923.33984375,601.07421875,-336.42578125,-998.53515625,0.0
1699116067.0197775,-806.640625,-771.97265625,999.0234375,-1000.0,0.0
1699116067.0236742,112.3046875,165.0390625,729.4921875,-55.6640625,0.0
1699116067.0275712,-979.4921875,-1000.0,-573.2421875,-968.75,0.0
1699116067.0314682,375.9765625,-52.24609375,-629.8828125,-368.65234375,0.0
1699116067.035365,-745.1171875,-742.1875,705.078125,-1000.0,0.0
1699116067.0393438,459.9609375,364.2578125,-910.15625,-201.66015625,0.0
1699116067.0432408,-1000.0,-1000.0,-33.69140625,-845.703125,0.0
1699116067.0471377,-184.08203125,-283.203125,-936.03515625,147.4609375,0.0
1699116067.0510347,-886.71875,-871.58203125,393.06640625,-1000.0,0.0
1699116067.0549316,-966.796875,868.65234375,-872.55859375,-533.69140625,0.0
1699116067.0588284,-428.22265625,-749.51171875,183.10546875,-929.19921875,0.0
1699116067.0627253,-349.609375,-571.77734375,-1000.0,249.0234375,0.0
1699116067.0666223,-969.7265625,953.61328125,-181.640625,-1000.0,0.0
1699116067.0705192,-833.49609375,-848.6328125,-978.02734375,-1000.0,0.0
1699116067.0744162,34.1796875,-72.75390625,632.8125,336.9140625,0.0
1699116067.078313,-585.44921875,-1000.0,-719.7265625,699.70703125,0.0
1699116067.08221,856.93359375,395.99609375,-355.46875,-884.27734375,0.0
1699116067.086193,-796.38671875,-748.046875,961.42578125,-1000.0,0.0
1699116067.0900898,147.4609375,175.29296875,859.375,-176.7578125,0.0
1699116067.0939867,-1000.0,-1000.0,-405.76171875,-902.34375,0.0
1699116067.0978837,133.7890625,-177.734375,-770.01953125,-172.36328125,0.0
1699116067.1017807,-751.46484375,-772.4609375,605.95703125,-1000.0,0.0
1699116067.1056776,595.21484375,495.1171875,-888.671875,-211.9140625,0.0
1699116067.1095746,-987.79296875,-1000.0,9.765625,-833.984375,0.0
1699116067.1134715,-299.8046875,-289.0625,-1000.0,239.74609375,0.0
1699116067.1173685,-929.19921875,-903.3203125,223.14453125,-1000.0,0.0
1699116067.1212654,-899.4140625,990.234375,-894.04296875,-781.25,0.0
1699116067.1251624,-283.203125,-551.26953125,351.5625,874.0234375,0.0
1699116067.1290593,-342.7734375,-691.40625,-1000.0,372.0703125,0.0
1699116067.1331134,-981.4453125,882.32421875,-288.57421875,-1000.0,0.0
1699116067.1370106,-834.47265625,-823.73046875,-977.05078125,-1000.0,0.0
1699116067.1409075,74.70703125,96.6796875,649.90234375,209.47265625,0.0
1699116067.1448045,-794.921875,-1000.0,-706.0546875,829.58984375,0.0
1699116067.1487014,653.3203125,163.0859375,-440.4296875,-726.5625,0.0
1699116067.1525984,-757.8125,-728.515625,877.9296875,-1000.0,0.0
1699116067.1564953,250.0,185.05859375,959.9609375,-184.5703125,0.0
1699116067.1603923,-1000.0,-1000.0,-254.8828125,-883.7890625,0.0
1699116067.1642892,34.1796875,-276.85546875,-854.98046875,-60.05859375,0.0
1699116067.1681862,-809.5703125,-813.96484375,540.52734375,-1000.0,0.0
1699116067.1720831,831.54296875,612.79296875,-883.7890625,-416.9921875,0.0
1699116067.17598,-717.28515625,-1000.0,38.57421875,-901.85546875,0.0
1699116067.1800182,-337.890625,-357.91015625,-1000.0,261.23046875,0.0
1699116067.1839151,-943.359375,-959.9609375,63.4765625,-1000.0,0.0
1699116067.187812,-865.72265625,-900.87890625,-935.05859375,-906.25,0.0
1699116067.191709,-178.7109375,-294.921875,536.62109375,709.47265625,0.0
1699116067.195606,-525.87890625,-859.375,-838.37890625,500.0,0.0
1699116067.1995032,934.5703125,705.56640625,-342.7734375,-1000.0,0.0
1699116067.2034001,-805.6640625,-788.57421875,-987.3046875,-1000.0,0.0
1699116067.207297,91.796875,162.109375,686.5234375,81.54296875,0.0
1699116067.211194,-907.2265625,-1000.0,-647.94921875,938.4765625,0.0
1699116067.215091,485.83984375,-6.34765625,-585.44921875,-554.6875,0.0
1699116067.218988,-750.48828125,-734.375,738.28125,-1000.0,0.0
1699116067.222885,449.21875,296.38671875,-918.9453125,-200.68359375,0.0
1699116067.2269068,-1000.0,-1000.0,-48.33984375,-854.4921875,0.0
1699116067.2308037,-91.796875,-278.3203125,-916.015625,118.65234375,0.0
1699116067.2347007,-842.28515625,-856.93359375,428.22265625,-1000.0,0.0
1699116067.2385979,950.1953125,802.734375,-867.1875,-529.78515625,0.0
1699116067.2424948,-551.7578125,-838.8671875,117.67578125,-935.05859375,0.0
1699116067.2463918,-348.6328125,-514.6484375,-1000.0,263.671875,0.0
1699116067.2502887,-958.0078125,979.4921875,-107.91015625,-1000.0,0.0
1699116067.2541857,-845.21484375,-862.79296875,-953.125,-1000.0,0.0
1699116067.2580829,-68.84765625,-120.60546875,589.84375,530.2734375,0.0
1699116067.2619798,-599.12109375,-1000.0,-786.62109375,601.5625,0.0
1699116067.2658768,875.9765625,455.56640625,-344.23828125,-946.2890625,0.0
1699116067.2697737,-792.96875,-754.8828125,996.58203125,-1000.0,0.0
1699116067.27378,117.1875,172.36328125,767.578125,-130.37109375,0.0
1699116067.277677,-1000.0,-1000.0,-530.2734375,-936.5234375,0.0
1699116067.2815742,313.96484375,-139.6484375,-748.046875,-263.18359375,0.0
1699116067.2854712,-755.37109375,-761.23046875,615.72265625,-1000.0,0.0
1699116067.2893682,557.12890625,439.94140625,-892.08984375,-210.9375,0.0
1699116067.293265,-1000.0,-1000.0,-5.37109375,-837.40234375,0.0
1699116067.2971623,-300.29296875,-283.69140625,-984.375,249.0234375,0.0
1699116067.3010592,-916.015625,-896.484375,279.296875,-1000.0,0.0
1699116067.3049562,-926.7578125,958.984375,-875.0,-636.71875,0.0
1699116067.3088534,-384.765625,-604.4921875,273.4375,-977.05078125,0.0
1699116067.3127503,-350.09765625,-663.57421875,-1000.0,261.23046875,0.0
1699116067.3166473,-972.65625,901.3671875,-253.90625,-1000.0,0.0
1699116067.3206594,-831.54296875,-829.58984375,-972.65625,-1000.0,0.0
1699116067.3245564,42.96875,40.0390625,618.65234375,277.83203125,0.0
1699116067.3284535,-655.2734375,-1000.0,-746.09375,748.53515625,0.0
1699116067.3323505,805.17578125,218.75,-432.12890625,-826.171875,0.0
1699116067.3362474,-786.62109375,-733.88671875,888.671875,-1000.0,0.0
1699116067.3401446,255.37109375,183.59375,939.94140625,-188.96484375,0.0
1699116067.3440416,-1000.0,-1000.0,-291.9921875,-879.8828125,0.0
1699116067.3479385,25.87890625,-264.6484375,-833.0078125,-63.96484375,0.0
1699116067.3518357,-774.90234375,-805.6640625,550.78125,-1000.0,0.0
1699116067.3557327,706.0546875,581.0546875,-888.18359375,-320.3125,0.0
1699116067.3596296,-880.859375,-1000.0,30.2734375,-861.328125,0.0
1699116067.3635268,-314.453125,-326.66015625,-1000.0,253.90625,0.0
1699116067.3675234,-940.91796875,-945.3125,99.609375,-1000.0,0.0
1699116067.3714204,-875.0,-915.0390625,-916.50390625,-796.875,0.0
1699116067.3753173,-194.3359375,-350.09765625,472.65625,854.4921875,0.0
1699116067.3792145,-430.6640625,-818.359375,-912.109375,400.390625,0.0
1699116067.3831115,977.05078125,758.7890625,-329.1015625,-1000.0,0.0
1699116067.3870087,-821.77734375,-796.38671875,-995.60546875,-1000.0,0.0
1699116067.3909056,94.23828125,157.71484375,715.33203125,75.1953125,0.0
1699116067.3948026,-892.578125,-1000.0,-598.6328125,940.4296875,0.0
1699116067.3986998,514.6484375,46.875,-547.36328125,-553.7109375,0.0
1699116067.4025967,-748.046875,-729.00390625,781.25,-1000.0,0.0
1699116067.4064937,356.4453125,255.37109375,-951.66015625,-192.87109375,0.0
1699116067.4103909,-1000.0,-1000.0,-118.1640625,-860.83984375,0.0
1699116067.414372,-77.1484375,-278.3203125,-901.3671875,42.96875,0.0
1699116067.418269,-839.35546875,-842.7734375,469.7265625,-1000.0,0.0
1699116067.422166,918.9453125,742.1875,-867.1875,-427.734375,0.0
1699116067.426063,-603.02734375,-915.0390625,82.51953125,-892.08984375,0.0
1699116067.4299603,-343.26171875,-473.14453125,-1000.0,247.0703125,0.0
1699116067.4338572,-957.03125,-1000.0,-55.17578125,-1000.0,0.0
1699116067.4377544,-847.65625,-875.0,-937.01171875,-1000.0,0.0
1699116067.4416513,-71.2890625,-200.1953125,553.22265625,529.78515625,0.0
1699116067.4455485,-572.75390625,-962.890625,-828.125,605.46875,0.0
1699116067.4494455,889.6484375,556.15234375,-341.30859375,-949.21875,0.0
1699116067.4533424,-798.33984375,-768.06640625,-996.09375,-1000.0,0.0
1699116067.4572396,119.140625,169.43359375,727.05078125,-48.33984375,0.0
1699116067.4612055,-1000.0,-1000.0,-596.6796875,-971.19140625,0.0
1699116067.4651024,313.4765625,-102.5390625,-658.203125,-368.65234375,0.0
1699116067.4689996,-742.67578125,-751.46484375,693.84765625,-1000.0,0.0
1699116067.4728966,493.65234375,392.578125,-900.390625,-202.63671875,0.0
1699116067.4767938,-1000.0,-1000.0,-43.9453125,-847.16796875,0.0
1699116067.4806907,-187.01171875,-284.66796875,-927.734375,159.1796875,0.0
1699116067.484588,-893.5546875,-876.46484375,411.1328125,-1000.0,0.0
1699116067.4884849,-940.4296875,887.6953125,-870.60546875,-623.53515625,0.0
1699116067.492382,-376.953125,-720.703125,179.6875,-984.86328125,0.0
1699116067.496279,-352.5390625,-602.05078125,-1000.0,267.08984375,0.0
1699116067.5001762,-972.65625,936.5234375,-220.703125,-1000.0,0.0
1699116067.5040731,-831.54296875,-844.7265625,-970.703125,-1000.0,0.0
1699116067.5081086,42.96875,-12.6953125,618.65234375,336.9140625,0.0
1699116067.5120058,-659.1796875,-1000.0,-749.51171875,699.70703125,0.0
1699116067.515903,807.12890625,288.57421875,-393.5546875,-884.27734375,0.0
1699116067.5198,-780.2734375,-739.74609375,928.7109375,-1000.0,0.0
1699116067.5236971,168.9453125,180.6640625,888.18359375,-176.7578125,0.0
1699116067.527594,-1000.0,-1000.0,-356.93359375,-907.2265625,0.0
1699116067.5314913,136.23046875,-236.328125,-809.08203125,-166.015625,0.0
1699116067.5353882,-773.4375,-788.57421875,568.359375,-1000.0,0.0
1699116067.5392854,700.1953125,514.16015625,-882.32421875,-312.01171875,0.0
1699116067.5431826,-873.046875,-1000.0,39.0625,-868.1640625,0.0
1699116067.5470796,-321.2890625,-283.203125,-1000.0,255.859375,0.0
1699116067.5509768,-929.6875,-919.921875,150.390625,-1000.0,0.0
1699116067.5550172,-892.08984375,-965.33203125,-890.625,-779.296875,0.0
1699116067.5589142,-284.66796875,-448.2421875,379.8828125,875.0,0.0
1699116067.5628114,-442.87109375,-768.06640625,-1000.0,386.23046875,0.0
1699116067.5667086,984.86328125,812.01171875,-314.453125,-1000.0,0.0
1699116067.5706055,-818.359375,-808.10546875,-977.5390625,-1000.0,0.0
1699116067.5745027,66.89453125,139.16015625,638.671875,210.9375,0.0
1699116067.5784,-788.0859375,-1000.0,-716.796875,829.1015625,0.0
1699116067.5822968,650.390625,84.9609375,-493.65234375,-728.515625,0.0
1699116067.586194,-764.16015625,-729.00390625,840.8203125,-1000.0,0.0
1699116067.5900912,351.5625,188.96484375,-993.65234375,-197.265625,0.0
1699116067.5939882,-1000.0,-1000.0,-195.80078125,-863.76953125,0.0
1699116067.5978854,-27.34375,-272.4609375,-878.41796875,42.96875,0.0
1699116067.6019108,-807.6171875,-831.54296875,510.25390625,-1000.0,0.0
1699116067.605808,833.984375,678.22265625,-876.953125,-427.24609375,0.0
1699116067.6097052,-720.21484375,-985.3515625,46.875,-894.53125,0.0
1699116067.6136022,-336.9140625,-432.6171875,-1000.0,259.765625,0.0
1699116067.6174994,-943.359375,-986.328125,2.44140625,-1000.0,0.0
1699116067.6213965,-865.72265625,-885.7421875,-928.7109375,-906.25,0.0
1699116067.6252937,-179.19921875,-240.234375,534.1796875,710.44921875,0.0
1699116067.6291907,-525.87890625,-935.05859375,-856.93359375,493.65234375,0.0
1699116067.6330879,935.546875,600.5859375,-343.26171875,-999.51171875,0.0
1699116067.636985,-808.59375,-772.94921875,-987.79296875,-1000.0,0.0
1699116067.6408823,102.5390625,166.9921875,685.05859375,-46.38671875,0.0
1699116067.6447792,-943.84765625,-1000.0,-645.99609375,-959.47265625,0.0
1699116067.6487892,460.44921875,-33.69140625,-647.4609375,-388.671875,0.0
1699116067.6526864,-809.08203125,-797.8515625,697.265625,-1000.0,0.0
1699116067.6565835,371.58203125,250.9765625,-902.34375,-113.28125,0.0
1699116067.6604805,-1000.0,-1000.0,-41.9921875,-856.4453125,0.0
1699116067.6643777,-194.3359375,-280.2734375,-938.4765625,147.4609375,0.0
1699116067.6682749,-864.2578125,-872.0703125,399.90234375,-1000.0,0.0
1699116067.672172,962.890625,853.02734375,-868.1640625,-533.69140625,0.0
1699116067.6760693,-560.05859375,-770.01953125,182.12890625,-931.15234375,0.0
1699116067.6799664,-340.8203125,-577.1484375,-1000.0,253.90625,0.0
1699116067.6838634,-966.796875,951.171875,-189.453125,-1000.0,0.0
1699116067.6877606,-838.37890625,-850.5859375,-958.49609375,-1000.0,0.0
1699116067.6916578,33.69140625,-85.9375,594.7265625,403.80859375,0.0
1699116067.6956532,-580.078125,-1000.0,-788.0859375,694.82421875,0.0
1699116067.6995504,860.3515625,386.71875,-369.140625,-885.7421875,0.0
1699116067.7034476,-797.8515625,-749.51171875,974.12109375,-1000.0,0.0
1699116067.7073445,148.4375,177.734375,802.734375,-177.24609375,0.0
1699116067.7112417,-1000.0,-1000.0,-494.140625,-902.34375,0.0
1699116067.715139,131.34765625,-204.1015625,-782.71484375,-171.875,0.0
1699116067.719036,-743.65234375,-777.83203125,600.09765625,-1000.0,0.0
1699116067.7229333,561.5234375,483.3984375,-879.39453125,-211.9140625,0.0
1699116067.7268305,-1000.0,-1000.0,-1.953125,-833.984375,0.0
1699116067.7307277,-291.9921875,-285.15625,-1000.0,244.62890625,0.0
1699116067.7346249,-930.6640625,-905.2734375,212.40234375,-1000.0,0.0
1699116067.7385218,-899.90234375,990.72265625,-879.39453125,-706.0546875,0.0
1699116067.7425442,-283.203125,-549.8046875,305.17578125,955.56640625,0.0
1699116067.7464414,-342.7734375,-701.66015625,-1000.0,347.16796875,0.0
1699116067.7503386,-980.95703125,878.90625,-282.2265625,-1000.0,0.0
1699116067.7542357,-834.47265625,-825.1953125,-964.84375,-1000.0,0.0
1699116067.758133,74.70703125,78.61328125,626.953125,208.984375,0.0
1699116067.7620301,-794.921875,-1000.0,-741.69921875,830.078125,0.0
1699116067.7659273,653.3203125,139.6484375,-419.921875,-726.5625,0.0
1699116067.7698245,-757.8125,-730.95703125,902.34375,-1000.0,0.0
1699116067.7737217,250.0,187.5,947.265625,-184.5703125,0.0
1699116067.777619,-1000.0,-1000.0,-285.15625,-879.39453125,0.0
1699116067.781516,32.2265625,-276.85546875,-878.90625,-63.4765625,0.0
1699116067.7854133,-804.6875,-813.4765625,518.5546875,-1000.0,0.0
1699116067.7893984,814.94140625,607.421875,-879.8828125,-326.171875,0.0
1699116067.7932956,-739.74609375,-1000.0,38.57421875,-862.79296875,0.0
1699116067.7971928,-334.47265625,-362.3046875,-1000.0,244.62890625,0.0
1699116067.80109,-942.87109375,-957.51953125,46.38671875,-1000.0,0.0
1699116067.8049872,-866.69921875,-907.2265625,-925.29296875,-908.69140625,0.0
1699116067.8088844,-179.6875,-319.82421875,518.5546875,709.47265625,0.0
1699116067.8127816,-506.34765625,-863.28125,-869.62890625,500.0,0.0
1699116067.8166788,942.87109375,703.61328125,-338.8671875,-1000.0,0.0
1699116067.820576,-809.08203125,-789.0625,-986.81640625,-1000.0,0.0
1699116067.8244731,93.75,161.62109375,685.05859375,81.54296875,0.0
1699116067.8283706,-910.15625,-1000.0,-649.90234375,938.4765625,0.0
1699116067.8322678,482.421875,-5.37109375,-569.82421875,-547.8515625,0.0
1699116067.8362586,-731.4453125,-719.23828125,766.11328125,-1000.0,0.0
1699116067.8401558,351.5625,247.55859375,-931.640625,-144.53125,0.0
1699116067.844053,-969.23828125,-1000.0,-61.5234375,996.09375,0.0
1699116067.8479502,102.05078125,-99.12109375,-874.51171875,-178.22265625,0.0
1699116067.8518474,-865.234375,-862.3046875,444.82421875,-1000.0,0.0
1699116067.8557446,949.70703125,754.39453125,-868.1640625,-521.97265625,0.0
1699116067.8596418,-546.38671875,-894.04296875,93.75,-946.2890625,0.0
1699116067.863539,-348.6328125,-490.234375,-1000.0,264.16015625,0.0
1699116067.8674362,-958.0078125,989.74609375,-104.98046875,-1000.0,0.0
1699116067.8713334,-845.703125,-870.1171875,-946.2890625,-1000.0,0.0
1699116067.8752306,-68.84765625,-153.3203125,568.84765625,529.78515625,0.0
1699116067.879128,-599.12109375,-1000.0,-812.5,605.95703125,0.0
1699116067.8831663,875.9765625,488.28125,-338.8671875,-950.68359375,0.0
1699116067.8870635,-792.96875,-758.7890625,-987.3046875,-1000.0,0.0
1699116067.8909607,117.1875,170.41015625,732.421875,-57.12890625,0.0
1699116067.8948581,-1000.0,-1000.0,-591.30859375,-946.2890625,0.0
1699116067.8987553,313.4765625,-122.0703125,-709.47265625,-322.265625,0.0
1699116067.9026525,-749.0234375,-755.37109375,657.2265625,-1000.0,0.0
1699116067.9065497,548.33984375,405.76171875,-893.06640625,-211.42578125,0.0
1699116067.910447,-1000.0,-1000.0,-48.828125,-839.35546875,0.0
1699116067.914344,-198.73046875,-282.2265625,-960.9375,249.0234375,0.0
1699116067.9182415,-889.16015625,-887.6953125,372.55859375,-1000.0,0.0
1699116067.9221387,-941.40625,923.33984375,-862.3046875,-636.71875,0.0
1699116067.926036,-376.953125,-663.0859375,166.015625,-977.5390625,0.0
1699116067.930063,-352.5390625,-627.44140625,-1000.0,265.13671875,0.0
1699116067.9339602,-973.14453125,922.36328125,-221.19140625,-1000.0,0.0
1699116067.9378576,-831.54296875,-837.40234375,-970.21484375,-1000.0,0.0
1699116067.9417548,42.96875,9.27734375,614.2578125,333.984375,0.0
1699116067.945652,-655.2734375,-1000.0,-752.9296875,710.44921875,0.0
1699116067.9495492,802.734375,271.97265625,-387.20703125,-875.0,0.0
1699116067.9534466,-779.296875,-737.79296875,941.40625,-1000.0,0.0
1699116067.9573438,241.2109375,180.6640625,879.8828125,-190.91796875,0.0
1699116067.961241,-1000.0,-1000.0,-387.20703125,-880.37109375,0.0
1699116067.9651382,124.0234375,-237.79296875,-819.3359375,-63.96484375,0.0
1699116067.9690356,-767.578125,-791.50390625,570.80078125,-1000.0,0.0
1699116067.9729328,698.2421875,536.1328125,-883.30078125,-319.82421875,0.0
1699116067.9769614,-873.046875,-1000.0,5.37109375,-861.81640625,0.0
1699116067.9808586,-321.2890625,-285.15625,-1000.0,254.8828125,0.0
1699116067.984756,-929.6875,-923.33984375,179.6875,-1000.0,0.0
1699116067.9886532,-892.578125,-949.21875,-895.5078125,-779.296875,0.0
1699116067.9925504,-284.66796875,-426.26953125,360.3515625,876.46484375,0.0
1699116067.9964478,-442.3828125,-744.140625,-1000.0,379.8828125,0.0
1699116068.000345,984.86328125,837.890625,-299.31640625,-1000.0,0.0
1699116068.0042422,-818.359375,-810.05859375,-967.7734375,-1000.0,0.0
1699116068.0081396,66.89453125,141.11328125,610.3515625,94.7265625,0.0
1699116068.0120368,-787.59765625,-1000.0,-759.765625,943.84765625,0.0
1699116068.015934,649.4140625,110.3515625,-461.9140625,-556.15234375,0.0
1699116068.0198314,-760.7421875,-726.5625,869.62890625,-1000.0,0.0
1699116068.0238447,346.19140625,190.91796875,959.47265625,-193.359375,0.0
1699116068.0277421,-1000.0,-1000.0,-278.3203125,-861.328125,0.0
1699116068.0316393,9.765625,-276.3671875,-868.1640625,42.48046875,0.0
1699116068.0355365,-782.71484375,-819.82421875,555.6640625,-1000.0,0.0
1699116068.039434,772.94921875,648.4375,-937.01171875,-427.734375,0.0
1699116068.0433311,-803.7109375,-1000.0,-58.10546875,-896.97265625,0.0
1699116068.0472283,-333.984375,-377.9296875,-1000.0,266.6015625,0.0
1699116068.0511258,-925.29296875,-946.2890625,115.72265625,-1000.0,0.0
1699116068.055023,-924.8046875,-946.77734375,997.0703125,-871.09375,0.0
1699116068.0589204,-267.578125,-347.16796875,327.1484375,780.2734375,0.0
1699116068.0628176,-514.6484375,-849.12109375,-893.06640625,580.078125,0.0
1699116068.0667148,934.08203125,700.1953125,-333.49609375,-951.171875,0.0
1699116068.0707128,-808.10546875,-786.62109375,-979.00390625,-1000.0,0.0
1699116068.07461,91.796875,160.15625,632.8125,-48.33984375,0.0
1699116068.0785074,-907.2265625,-1000.0,-727.5390625,-971.19140625,0.0
1699116068.0824046,485.83984375,2.9296875,-531.25,-368.65234375,0.0
1699116068.086302,-750.9765625,-733.88671875,779.296875,-1000.0,0.0
1699116068.0901992,449.21875,322.265625,-936.5234375,-201.66015625,0.0
1699116068.0940967,-1000.0,-1000.0,-80.56640625,-846.19140625,0.0
1699116068.0979939,-91.796875,-280.2734375,-897.94921875,147.4609375,0.0
1699116068.1018913,-842.28515625,-863.76953125,468.26171875,-1000.0,0.0
1699116068.1057885,950.1953125,836.42578125,-873.53515625,-555.17578125,0.0
1699116068.1096857,-552.24609375,-794.43359375,76.66015625,-942.87109375,0.0
1699116068.113583,-346.19140625,-508.7890625,-1000.0,253.41796875,0.0
1699116068.1175666,-962.40234375,982.91015625,-60.05859375,-1000.0,0.0
1699116068.1214638,-842.28515625,-856.93359375,-951.66015625,-1000.0,0.0
1699116068.1253612,-19.04296875,-106.93359375,559.5703125,336.9140625,0.0
1699116068.1292584,-585.9375,-989.74609375,-815.91796875,699.70703125,0.0
1699116068.1331558,869.140625,492.1875,-338.37890625,-884.27734375,0.0
1699116068.137053,-789.0625,-756.8359375,995.60546875,-1000.0,0.0
1699116068.1409504,115.72265625,170.41015625,769.04296875,-177.24609375,0.0
1699116068.1448476,-1000.0,-1000.0,-529.296875,-901.85546875,0.0
1699116068.148745,313.96484375,-126.953125,-687.5,-171.875,0.0
1699116068.1526423,-753.41796875,-759.765625,667.48046875,-1000.0,0.0
1699116068.1565397,554.19921875,459.9609375,-906.73828125,-211.9140625,0.0
1699116068.1604369,-1000.0,-1000.0,-50.78125,-833.984375,0.0
1699116068.1644273,-270.5078125,-286.1328125,-958.49609375,239.74609375,0.0
1699116068.1683245,-908.203125,-899.4140625,367.1875,-1000.0,0.0
1699116068.172222,-931.15234375,975.5859375,-868.65234375,-782.2265625,0.0
1699116068.176119,-382.32421875,-581.54296875,196.77734375,874.51171875,0.0
1699116068.1800165,-351.07421875,-635.7421875,-1000.0,385.7421875,0.0
1699116068.183914,-973.14453125,919.921875,-201.66015625,-1000.0,0.0
1699116068.1878111,-831.54296875,-832.03125,-956.54296875,-1000.0,0.0
1699116068.1917086,43.45703125,32.71484375,571.77734375,210.9375,0.0
1699116068.1956058,-655.2734375,-1000.0,-808.59375,829.1015625,0.0
1699116068.1995032,802.734375,271.484375,-371.58203125,-727.5390625,0.0
1699116068.2034004,-779.296875,-736.328125,954.58984375,-1000.0,0.0
1699116068.2072978,243.1640625,181.15234375,834.9609375,-191.40625,0.0
1699116068.2112718,-1000.0,-1000.0,-462.40234375,-873.046875,0.0
1699116068.2151692,115.72265625,-245.1171875,-784.66796875,-3.41796875,0.0
1699116068.2190664,-768.5546875,-799.31640625,602.05078125,-1000.0,0.0
1699116068.2229638,698.73046875,583.0078125,-890.625,-422.8515625,0.0
1699116068.226861,-875.48828125,-1000.0,-20.01953125,-897.94921875,0.0
1699116068.2307584,-313.96484375,-289.55078125,-980.95703125,260.25390625,0.0
1699116068.2346559,-942.3828125,-932.6171875,289.0625,-1000.0,0.0
1699116068.238553,-873.046875,-915.52734375,-897.4609375,-906.25,0.0
1699116068.2424505,-182.6171875,-359.375,319.82421875,709.47265625,0.0
1699116068.2463477,-429.19921875,-754.39453125,-1000.0,500.0,0.0
1699116068.250245,974.12109375,829.1015625,-291.50390625,-1000.0,0.0
1699116068.2541425,-811.5234375,-806.640625,-974.12109375,-1000.0,0.0
1699116068.258186,65.4296875,154.78515625,587.40234375,79.1015625,0.0
1699116068.2620833,-787.59765625,-1000.0,-777.83203125,947.265625,0.0
1699116068.2659807,651.3671875,88.8671875,-438.96484375,-541.9921875,0.0
1699116068.2698781,-767.578125,-725.5859375,861.328125,-1000.0,0.0
1699116068.2737756,357.91015625,254.8828125,963.37890625,-203.61328125,0.0
1699116068.2776728,-1000.0,-1000.0,-229.98046875,-850.5859375,0.0
1699116068.2815702,-70.3125,-279.296875,-852.05078125,147.4609375,0.0
1699116068.2854676,-819.82421875,-839.35546875,528.3203125,-1000.0,0.0
1699116068.2893648,860.3515625,739.2578125,-879.8828125,-533.69140625,0.0
1699116068.2932622,-690.91796875,-916.9921875,30.2734375,-933.59375,0.0
1699116068.2971597,-333.49609375,-411.1328125,-1000.0,263.18359375,0.0
1699116068.3010569,-954.58984375,-974.12109375,116.2109375,-1000.0,0.0
1699116068.3050835,-851.07421875,-880.37109375,-920.8984375,-1000.0,0.0
1699116068.308981,-76.171875,-217.7734375,442.3828125,530.76171875,0.0
1699116068.3128784,-505.859375,-896.484375,-921.38671875,600.09765625,0.0
1699116068.3167758,921.875,645.5078125,-335.44921875,-946.2890625,0.0
1699116068.320673,-798.33984375,-776.3671875,-977.05078125,-1000.0,0.0
1699116068.3245704,90.8203125,162.59765625,632.8125,-168.9453125,0.0
1699116068.3284678,-910.15625,-1000.0,-729.4921875,-896.484375,0.0
1699116068.3323653,481.93359375,-30.2734375,-518.06640625,-172.36328125,0.0
1699116068.3362627,-757.32421875,-740.234375,789.55078125,-1000.0,0.0
1699116068.34016,459.9609375,379.8828125,-943.84765625,-193.84765625,0.0
1699116068.3440573,-1000.0,-1000.0,-96.6796875,-890.625,0.0
1699116068.3479548,-180.17578125,-286.1328125,-882.32421875,160.64453125,0.0
1699116068.3519673,-895.99609375,-872.0703125,492.1875,-1000.0,0.0
1699116068.3558648,-939.94140625,878.90625,-875.0,-636.71875,0.0
1699116068.3597622,-376.953125,-738.28125,61.5234375,-979.00390625,0.0
1699116068.3636596,-352.5390625,-527.83203125,-1000.0,260.7421875,0.0
1699116068.367557,-970.703125,973.6328125,-7.8125,-1000.0,0.0
1699116068.3714542,-831.54296875,-849.609375,-948.73046875,-1000.0,0.0
1699116068.3753517,32.71484375,-58.59375,525.390625,249.51171875,0.0
1699116068.379249,-572.265625,-1000.0,-837.40234375,835.44921875,0.0
1699116068.3831465,864.74609375,456.0546875,-344.23828125,-730.46875,0.0
1699116068.387044,-797.36328125,-751.46484375,-993.1640625,-1000.0,0.0
1699116068.3909414,143.5546875,170.41015625,685.05859375,-184.5703125,0.0
1699116068.3948388,-1000.0,-1000.0,-659.66796875,-879.39453125,0.0
1699116068.398856,161.1328125,-139.16015625,-621.09375,-63.96484375,0.0
1699116068.4027534,-753.90625,-765.625,706.54296875,-1000.0,0.0
1699116068.4066508,597.65625,500.9765625,-919.921875,-319.82421875,0.0
1699116068.4105482,-983.88671875,-1000.0,-49.8046875,-860.83984375,0.0
1699116068.4144456,-300.29296875,-290.0390625,-907.2265625,250.9765625,0.0
1699116068.418343,-929.19921875,-906.25,440.4296875,-1000.0,0.0
1699116068.4222405,-899.90234375,-995.1171875,-891.11328125,-830.078125,0.0
1699116068.426138,-283.69140625,-530.2734375,217.7734375,812.5,0.0
1699116068.4300354,-342.7734375,-638.671875,-1000.0,481.93359375,0.0
1699116068.4339328,-981.4453125,913.0859375,-158.203125,-1000.0,0.0
1699116068.4378302,-825.68359375,-825.68359375,-959.47265625,-1000.0,0.0
1699116068.4417274,42.48046875,92.28515625,540.52734375,81.54296875,0.0
1699116068.4457297,-655.76171875,-1000.0,-830.56640625,938.4765625,0.0
1699116068.4496272,805.17578125,255.859375,-343.75,-553.7109375,0.0
1699116068.4535246,-786.62109375,-731.93359375,971.19140625,-1000.0,0.0
1699116068.457422,255.859375,179.6875,804.19921875,-192.87109375,0.0
1699116068.4613194,-1000.0,-1000.0,-504.39453125,-860.83984375,0.0
1699116068.4652169,34.1796875,-246.58203125,-746.09375,42.96875,0.0
1699116068.4691143,-809.08203125,-802.24609375,627.44140625,-1000.0,0.0
1699116068.4730117,832.03125,604.00390625,-899.4140625,-427.734375,0.0
1699116068.4769092,-717.28515625,-1000.0,-45.41015625,-891.6015625,0.0
1699116068.4808066,-337.890625,-291.015625,-972.65625,247.0703125,0.0
1699116068.484704,-939.453125,-936.5234375,308.59375,-1000.0,0.0
1699116068.4886014,-869.62890625,-904.296875,-902.34375,-1000.0,0.0
1699116068.492589,-182.12890625,-317.87109375,260.7421875,530.2734375,0.0
1699116068.4964864,-428.7109375,-747.0703125,-1000.0,605.46875,0.0
1699116068.5003839,976.07421875,830.078125,-248.046875,-949.21875,0.0
1699116068.5042813,-820.80078125,-804.6875,-961.9140625,-1000.0,0.0
1699116068.5081787,94.23828125,154.296875,540.0390625,-48.33984375,0.0
1699116068.5120761,-891.11328125,-1000.0,-833.984375,-970.703125,0.0
1699116068.5159736,515.13671875,89.35546875,-343.26171875,-369.140625,0.0
1699116068.519871,-750.0,-724.609375,937.98828125,-1000.0,0.0
1699116068.5237684,380.859375,287.59765625,879.8828125,-208.49609375,0.0
1699116068.5276659,-1000.0,-1000.0,-359.375,-842.7734375,0.0
1699116068.5315633,-78.125,-280.76171875,-831.54296875,226.07421875,0.0
1699116068.5354607,-848.14453125,-847.65625,555.17578125,-1000.0,0.0
1699116068.5394557,951.66015625,779.78515625,-895.01953125,-633.30078125,0.0
1699116068.543353,-551.7578125,-866.69921875,-28.3203125,-979.98046875,0.0
1699116068.5472505,-348.6328125,-413.0859375,-1000.0,265.625,0.0
1699116068.551148,-954.1015625,-979.00390625,186.03515625,-1000.0,0.0
1699116068.5550454,-847.16796875,-869.140625,-937.98828125,-1000.0,0.0
1699116068.5589428,-75.68359375,-166.9921875,400.87890625,336.9140625,0.0
1699116068.5628402,-511.71875,-878.41796875,-932.12890625,699.70703125,0.0
1699116068.5667377,921.875,654.78515625,-321.77734375,-885.7421875,0.0
1699116068.5706353,-810.05859375,-774.90234375,-986.81640625,-1000.0,0.0
1699116068.5745327,124.0234375,161.62109375,604.98046875,-186.03515625,0.0
1699116068.5784302,-1000.0,-1000.0,-748.53515625,-890.13671875,0.0
1699116068.5823276,313.4765625,-24.90234375,-474.609375,-101.07421875,0.0
1699116068.5863261,-749.0234375,-739.74609375,801.7578125,-1000.0,0.0
1699116068.5902236,548.828125,395.5078125,-971.6796875,-317.3828125,0.0
1699116068.594121,-1000.0,-1000.0,-140.13671875,-864.2578125,0.0
1699116068.5980186,-198.73046875,-282.71484375,-866.69921875,255.37109375,0.0
1699116068.601916,-889.16015625,-887.20703125,518.5546875,-1000.0,0.0
1699116068.6058135,-941.40625,931.640625,-881.8359375,-779.296875,0.0
1699116068.609711,-376.953125,-656.25,36.1328125,874.51171875,0.0
1699116068.6136084,-353.02734375,-531.73828125,-1000.0,386.23046875,0.0
1699116068.6175058,-972.65625,970.21484375,57.12890625,-1000.0,0.0
1699116068.6214035,-831.54296875,-841.796875,-951.171875,-1000.0,0.0
1699116068.625301,42.96875,-12.6953125,493.65234375,196.2890625,0.0
1699116068.6291983,-656.73828125,-993.65234375,-867.1875,882.8125,0.0
1699116068.6332633,804.6875,450.1953125,-344.23828125,-658.69140625,0.0
1699116068.637161,-779.296875,-748.046875,-984.375,-1000.0,0.0
1699116068.6410584,213.37890625,169.921875,629.39453125,-195.80078125,0.0
1699116068.6449559,-1000.0,-1000.0,-734.86328125,-862.79296875,0.0
1699116068.6488533,128.90625,-143.06640625,-563.96484375,42.96875,0.0
1699116068.652751,-770.01953125,-770.01953125,739.2578125,-1000.0,0.0
1699116068.6566484,698.73046875,531.73828125,-934.5703125,-427.734375,0.0
1699116068.6605458,-873.046875,-1000.0,-88.8671875,-895.01953125,0.0
1699116068.6644433,-321.2890625,-288.0859375,-876.46484375,259.765625,0.0
1699116068.668341,-926.26953125,-923.828125,492.1875,-1000.0,0.0
1699116068.6722383,-896.97265625,-939.94140625,-896.484375,-906.25,0.0
1699116068.6761358,-281.73828125,-423.33984375,126.953125,708.0078125,0.0
1699116068.6801858,-383.7890625,-659.66796875,-1000.0,505.37109375,0.0
1699116068.6840832,-973.6328125,920.41015625,-79.58984375,-1000.0,0.0
1699116068.687981,-885.25390625,-875.0,987.3046875,-1000.0,0.0
1699116068.6918783,-16.11328125,51.26953125,449.21875,94.23828125,0.0
1699116068.6957757,-778.80859375,-1000.0,-831.0546875,-967.7734375,0.0
1699116068.6996734,648.92578125,223.14453125,-342.28515625,-375.9765625,0.0
1699116068.7035708,-763.18359375,-729.4921875,969.7265625,-1000.0,0.0
1699116068.7074683,346.19140625,197.75390625,774.90234375,-202.63671875,0.0
1699116068.711366,-1000.0,-1000.0,-517.578125,-846.19140625,0.0
1699116068.7152634,16.6015625,-256.34765625,-726.07421875,147.4609375,0.0
1699116068.7191608,-801.7578125,-824.70703125,617.1875,-1000.0,0.0
1699116068.7230585,829.1015625,692.3828125,-910.15625,-533.69140625,0.0
1699116068.7270935,-717.28515625,-956.54296875,-60.05859375,-930.6640625,0.0
1699116068.730991,-337.40234375,-305.6640625,-956.54296875,253.90625,0.0
1699116068.7348886,-943.84765625,-942.3828125,321.77734375,-1000.0,0.0
1699116068.738786,-865.72265625,-887.20703125,-902.83203125,-1000.0,0.0
1699116068.7426836,-178.7109375,-258.30078125,212.40234375,401.3671875,0.0
1699116068.746581,-525.87890625,-755.37109375,-939.94140625,695.3125,0.0
1699116068.7504785,934.5703125,823.2421875,-56.640625,-885.7421875,0.0
1699116068.7543762,-805.6640625,-800.29296875,-982.421875,-1000.0,0.0
1699116068.7582736,91.796875,155.76171875,511.23046875,-177.24609375,0.0
1699116068.7621713,-907.2265625,-1000.0,-862.3046875,-901.85546875,0.0
1699116068.7660687,485.83984375,62.01171875,-417.48046875,-171.875,0.0
1699116068.7699664,-750.9765625,-728.515625,886.23046875,-1000.0,0.0
1699116068.7739866,449.21875,340.8203125,894.04296875,-211.9140625,0.0
1699116068.7778842,-1000.0,-1000.0,-368.65234375,-833.984375,0.0
1699116068.7817817,-91.796875,-282.71484375,-843.26171875,248.53515625,0.0
1699116068.7856793,-842.28515625,-867.1875,546.38671875,-1000.0,0.0
1699116068.789577,950.1953125,860.3515625,-891.6015625,-643.06640625,0.0
1699116068.7934744,-552.24609375,-761.23046875,-27.83203125,-973.6328125,0.0
1699116068.797372,-343.75,-456.0546875,-1000.0,355.95703125,0.0
1699116068.8012695,-965.8203125,-993.1640625,196.77734375,-1000.0,0.0
1699116068.8051672,-838.37890625,-858.88671875,-936.5234375,-1000.0,0.0
1699116068.8090646,25.390625,-116.2109375,379.39453125,210.44921875,0.0
1699116068.8129623,-574.21875,-924.8046875,-963.8671875,829.1015625,0.0
1699116068.8168597,862.79296875,582.51953125,-328.61328125,-726.5625,0.0
1699116068.8208864,-785.64453125,-764.6484375,-979.4921875,-1000.0,0.0
1699116068.824784,114.74609375,164.0625,557.12890625,-184.5703125,0.0
1699116068.8286815,-1000.0,-1000.0,-818.84765625,-879.39453125,0.0
1699116068.8325791,314.453125,-62.01171875,-487.3046875,-63.96484375,0.0
1699116068.8364766,-755.37109375,-750.0,776.3671875,-1000.0,0.0
1699116068.8403742,556.640625,471.6796875,-957.03125,-320.3125,0.0
1699116068.844272,-1000.0,-1000.0,-81.54296875,-860.3515625,0.0
1699116068.8481693,-299.8046875,-289.55078125,-879.39453125,243.65234375,0.0
1699116068.852067,-916.015625,-900.87890625,480.95703125,-1000.0,0.0
1699116068.8559644,-926.7578125,989.74609375,-888.671875,-909.1796875,0.0
1699116068.859862,-384.765625,-562.01171875,59.08203125,709.47265625,0.0
1699116068.8637595,-350.09765625,-585.9375,-1000.0,500.0,0.0
1699116068.8677702,-972.65625,942.3828125,48.33984375,-1000.0,0.0
1699116068.8716679,-831.54296875,-831.0546875,-974.12109375,-1000.0,0.0
1699116068.8755653,42.96875,47.8515625,514.6484375,81.54296875,0.0
1699116068.879463,-655.2734375,-1000.0,-822.265625,938.4765625,0.0
1699116068.8833604,802.734375,368.1640625,-348.14453125,-554.19921875,0.0
1699116068.887258,-779.78515625,-738.28125,987.3046875,-1000.0,0.0
1699116068.8911557,243.1640625,172.8515625,721.19140625,-198.73046875,0.0
1699116068.8950531,-1000.0,-1000.0,-601.07421875,-856.4453125,0.0
1699116068.8989508,112.79296875,-175.78125,-620.1171875,102.05078125,0.0
1699116068.9028485,-768.5546875,-783.203125,700.1953125,-1000.0,0.0
1699116068.906746,699.21875,593.75,-929.6875,-518.5546875,0.0
1699116068.9106436,-875.9765625,-1000.0,-92.28515625,-931.15234375,0.0
1699116068.9146194,-313.96484375,-294.43359375,-913.0859375,262.20703125,0.0
1699116068.918517,-942.3828125,-932.6171875,432.12890625,-1000.0,0.0
1699116068.9224145,-872.55859375,-909.66796875,-895.5078125,-1000.0,0.0
1699116068.9263122,-182.12890625,-350.5859375,175.78125,529.78515625,0.0
1699116068.9302099,-428.7109375,-704.1015625,-1000.0,605.95703125,0.0
1699116068.9341075,974.609375,869.140625,-125.9765625,-951.66015625,0.0
1699116068.938005,-812.01171875,-812.01171875,-951.171875,-1000.0,0.0
1699116068.9419026,64.94140625,150.390625,480.46875,-66.89453125,0.0
1699116068.9458003,-787.59765625,-1000.0,-891.11328125,-918.45703125,0.0
1699116068.9496977,651.3671875,138.18359375,-350.09765625,-270.99609375,0.0
1699116068.9535954,-768.5546875,-721.6796875,946.77734375,-1000.0,0.0
1699116068.957493,358.88671875,273.92578125,797.8515625,-212.890625,0.0
1699116068.961457,-1000.0,-1000.0,-494.140625,-837.40234375,0.0
1699116068.9653547,-75.68359375,-282.2265625,-758.7890625,249.0234375,0.0
1699116068.9692523,-843.26171875,-839.84375,605.95703125,-1000.0,0.0
1699116068.9731498,931.15234375,753.90625,-905.2734375,-636.71875,0.0
1699116068.9770474,-584.9609375,-897.4609375,-64.94140625,-977.5390625,0.0
1699116068.980945,-345.21484375,-376.46484375,-974.12109375,265.13671875,0.0
1699116068.9848428,-954.58984375,-967.7734375,301.26953125,-1000.0,0.0
1699116068.9887402,-848.14453125,-872.55859375,-926.7578125,-1000.0,0.0
1699116068.9926379,-76.171875,-183.10546875,281.73828125,330.56640625,0.0
1699116068.9965355,-506.34765625,-838.37890625,-1000.0,727.5390625,0.0
1699116069.0004332,924.31640625,706.54296875,-280.2734375,-856.4453125,0.0
1699116069.0043306,-810.546875,-781.25,-977.5390625,-1000.0,0.0
1699116069.0083573,121.58203125,158.203125,518.5546875,-190.4296875,0.0
1699116069.012255,-1000.0,-1000.0,-859.86328125,-880.37109375,0.0
1699116069.0161526,326.171875,13.18359375,-433.59375,-63.96484375,0.0
1699116069.0200503,-748.046875,-734.375,836.42578125,-1000.0,0.0
1699116069.023948,525.87890625,390.625,959.9609375,-320.3125,0.0
1699116069.0278454,-1000.0,-1000.0,-214.35546875,-861.81640625,0.0
1699116069.031743,-193.84765625,-283.69140625,-864.2578125,254.8828125,0.0
1699116069.0356407,-891.11328125,-885.25390625,500.9765625,-1000.0,0.0
1699116069.0395384,-940.91796875,926.26953125,-883.7890625,-779.296875,0.0
1699116069.043436,-376.953125,-664.0625,16.6015625,874.51171875,0.0
1699116069.0473337,-353.02734375,-518.5546875,-1000.0,386.23046875,0.0
1699116069.0512311,-973.14453125,974.609375,124.0234375,-1000.0,0.0
1699116069.055264,-831.54296875,-840.8203125,-955.078125,-1000.0,0.0
1699116069.0591617,42.96875,-21.97265625,463.37890625,176.26953125,0.0
1699116069.0630593,-658.203125,-962.890625,-886.71875,954.58984375,0.0
1699116069.066957,808.59375,497.55859375,-344.23828125,-564.453125,0.0
1699116069.0708547,-780.76171875,-751.953125,-982.421875,-1000.0,0.0
1699116069.074752,161.1328125,168.45703125,612.79296875,-193.84765625,0.0
1699116069.0786498,-1000.0,-1000.0,-756.8359375,-860.83984375,0.0
1699116069.0825474,130.37109375,-124.0234375,-557.12890625,42.48046875,0.0
1699116069.086445,-755.37109375,-766.11328125,764.16015625,-1000.0,0.0
1699116069.0903428,644.04296875,527.83203125,999.0234375,-427.734375,0.0
1699116069.0942404,-961.42578125,-1000.0,-185.546875,-895.01953125,0.0
1699116069.098138,-310.546875,-288.0859375,-887.6953125,259.765625,0.0
1699116069.1021576,-928.7109375,-924.8046875,458.0078125,-1000.0,0.0
1699116069.1060553,-896.484375,-937.01171875,-896.97265625,-908.203125,0.0
1699116069.109953,-284.66796875,-421.38671875,104.00390625,704.1015625,0.0
1699116069.1138506,-417.96875,-641.11328125,-1000.0,576.66015625,0.0
1699116069.1177483,993.1640625,908.69140625,-47.8515625,-954.58984375,0.0
1699116069.121646,-822.265625,-820.3125,-957.03125,-1000.0,0.0
1699116069.1255436,68.84765625,138.18359375,483.88671875,-49.31640625,0.0
1699116069.1294413,-788.57421875,-1000.0,-873.046875,-971.19140625,0.0
1699116069.133339,649.4140625,235.3515625,-346.19140625,-368.65234375,0.0
1699116069.1372366,-761.23046875,-728.02734375,965.33203125,-1000.0,0.0
1699116069.1411343,346.19140625,211.9140625,757.8125,-201.66015625,0.0
1699116069.145032,-1000.0,-1000.0,-554.19921875,-846.19140625,0.0
1699116069.1490371,9.765625,-264.16015625,-715.33203125,147.4609375,0.0
1699116069.1529348,-782.71484375,-813.4765625,654.296875,-1000.0,0.0
1699116069.1568325,772.4609375,663.57421875,-970.21484375,-533.203125,0.0
1699116069.1607301,-805.6640625,-1000.0,-155.2734375,-928.7109375,0.0
1699116069.1646278,-327.1484375,-301.7578125,-924.31640625,249.0234375,0.0
1699116069.1685255,-943.84765625,-941.89453125,383.30078125,-1000.0,0.0
1699116069.1724231,-868.1640625,-892.08984375,-932.12890625,-1000.0,0.0
1699116069.1763208,-179.19921875,-248.046875,330.56640625,336.9140625,0.0
1699116069.1802185,-525.87890625,-788.0859375,-942.3828125,699.70703125,0.0
1699116069.1841161,934.5703125,776.3671875,-256.34765625,-884.27734375,0.0
1699116069.1880138,-805.6640625,-793.9453125,-962.890625,-1000.0,0.0
1699116069.1919115,91.796875,156.25,507.8125,-177.24609375,0.0
1699116069.1959004,-907.2265625,-1000.0,-875.0,-902.34375,0.0
1699116069.199798,485.83984375,55.6640625,-410.15625,-171.875,0.0
1699116069.2036958,-752.44140625,-729.4921875,879.39453125,-1000.0,0.0
1699116069.2075934,451.66015625,354.98046875,906.25,-211.9140625,0.0
1699116069.211491,-1000.0,-1000.0,-338.8671875,-833.984375,0.0
1699116069.2153888,-113.76953125,-283.69140625,-837.890625,239.74609375,0.0
1699116069.2192864,-846.6796875,-870.60546875,546.38671875,-1000.0,0.0
1699116069.2231843,952.63671875,876.953125,-884.765625,-782.2265625,0.0
1699116069.227082,-554.19921875,-739.74609375,-28.80859375,874.51171875,0.0
1699116069.2309797,-342.28515625,-472.16796875,-1000.0,385.7421875,0.0
1699116069.2348773,-966.30859375,-1000.0,183.59375,-1000.0,0.0
1699116069.238775,-838.37890625,-855.95703125,-942.3828125,-1000.0,0.0
1699116069.2427692,32.71484375,-101.07421875,367.1875,210.9375,0.0
1699116069.246667,-572.265625,-937.5,-973.14453125,829.1015625,0.0
1699116069.2505648,861.328125,561.03515625,-318.359375,-727.05078125,0.0
1699116069.2544625,-785.15625,-761.71875,-968.75,-1000.0,0.0
1699116069.2583601,114.74609375,165.0390625,578.125,-187.5,0.0
1699116069.2622578,-1000.0,-1000.0,-804.6875,-876.46484375,0.0
1699116069.2661555,313.96484375,-72.75390625,-443.359375,-37.59765625,0.0
1699116069.2700531,-755.37109375,-752.44140625,818.359375,-1000.0,0.0
1699116069.2739508,557.12890625,482.421875,-968.75,-361.81640625,0.0
1699116069.2778487,-1000.0,-1000.0,-94.23828125,-875.0,0.0
1699116069.2817464,-292.48046875,-291.50390625,-881.34765625,250.48828125,0.0
1699116069.285644,-930.6640625,-901.3671875,483.88671875,-1000.0,0.0
1699116069.289623,-899.90234375,989.74609375,-890.13671875,-907.71484375,0.0
1699116069.2935207,-283.203125,-561.03515625,67.3828125,709.47265625,0.0
1699116069.2974184,-343.26171875,-604.98046875,-1000.0,500.0,0.0
1699116069.301316,-981.4453125,930.6640625,8.7890625,-1000.0,0.0
1699116069.305214,-825.68359375,-828.125,-962.40234375,-1000.0,0.0
1699116069.3091116,42.48046875,73.2421875,512.20703125,81.54296875,0.0
1699116069.3130093,-655.2734375,-1000.0,-836.9140625,937.98828125,0.0
1699116069.316907,805.17578125,333.49609375,-349.12109375,-555.17578125,0.0
1699116069.3208046,-786.62109375,-734.86328125,979.00390625,-1000.0,0.0
1699116069.3247023,256.34765625,174.31640625,711.42578125,-203.61328125,0.0
1699116069.3286002,-1000.0,-1000.0,-614.2578125,-850.5859375,0.0
1699116069.3324978,27.83203125,-204.1015625,-641.6015625,147.4609375,0.0
1699116069.3364635,-789.55078125,-791.015625,684.08203125,-1000.0,0.0
1699116069.340361,761.23046875,597.65625,-918.9453125,-533.69140625,0.0
1699116069.3442588,-809.5703125,-1000.0,-83.49609375,-933.10546875,0.0
1699116069.3481565,-323.73046875,-291.50390625,-916.50390625,263.18359375,0.0
1699116069.352054,-940.91796875,-937.01171875,427.734375,-1000.0,0.0
1699116069.355952,-871.58203125,-901.85546875,-900.390625,-1000.0,0.0
1699116069.3598497,-182.12890625,-320.3125,220.21484375,529.78515625,0.0
1699116069.3637474,-429.19921875,-717.28515625,-1000.0,605.95703125,0.0
1699116069.367645,975.5859375,857.91015625,-181.640625,-953.125,0.0
1699116069.371543,-820.80078125,-809.08203125,-953.61328125,-1000.0,0.0
1699116069.3754406,93.75,152.34375,501.46484375,-82.03125,0.0
1699116069.3793383,-890.13671875,-1000.0,-877.9296875,-875.48828125,0.0
1699116069.383369,515.625,113.76953125,-358.3984375,-190.4296875,0.0
1699116069.3872669,-750.48828125,-723.14453125,937.98828125,-1000.0,0.0
1699116069.3911645,390.625,285.15625,833.0078125,-214.35546875,0.0
1699116069.3950622,-1000.0,-1000.0,-444.82421875,-834.47265625,0.0
1699116069.39896,-80.078125,-280.2734375,-791.9921875,249.0234375,0.0
1699116069.4028578,-847.16796875,-849.609375,588.37890625,-1000.0,0.0
1699116069.4067554,951.66015625,787.59765625,-892.578125,-636.71875,0.0
1699116069.410653,-551.7578125,-855.95703125,-68.84765625,-978.02734375,0.0
1699116069.414551,-349.12109375,-405.2734375,-973.14453125,265.13671875,0.0
1699116069.4184487,-957.51953125,-977.05078125,324.70703125,-1000.0,0.0
1699116069.4223464,-846.19140625,-867.1875,-924.8046875,-1000.0,0.0
1699116069.4262443,-70.3125,-158.203125,312.98828125,306.640625,0.0
1699116069.4302602,-584.9609375,-867.1875,-1000.0,830.078125,0.0
1699116069.4341578,883.7890625,666.50390625,-305.17578125,-744.62890625,0.0
1699116069.4380558,-795.41015625,-776.3671875,-974.609375,-1000.0,0.0
1699116069.4419534,118.1640625,162.109375,560.546875,-185.546875,0.0
1699116069.445851,-1000.0,-1000.0,-818.359375,-879.39453125,0.0
1699116069.449749,313.4765625,-25.390625,-431.15234375,-63.96484375,0.0
1699116069.4536467,-749.51171875,-741.2109375,837.890625,-1000.0,0.0
1699116069.4575446,548.33984375,413.57421875,994.140625,-319.82421875,0.0
1699116069.4614422,-1000.0,-1000.0,-162.109375,-861.81640625,0.0
1699116069.46534,-198.73046875,-283.69140625,-873.53515625,254.8828125,0.0
1699116069.4692378,-889.16015625,-892.08984375,495.1171875,-1000.0,0.0
1699116069.4731355,-941.40625,952.1484375,-883.7890625,-781.73828125,0.0
1699116069.4771569,-376.953125,-623.53515625,32.71484375,874.51171875,0.0
1699116069.4810545,-359.375,-539.55078125,-1000.0,434.08203125,0.0
1699116069.4849524,-950.1953125,968.75,76.66015625,-1000.0,0.0
1699116069.48885,-885.7421875,-840.8203125,-936.03515625,-1000.0,0.0
1699116069.492748,189.94140625,11.71875,434.5703125,104.00390625,0.0
1699116069.4966457,-376.953125,-893.06640625,-873.046875,792.96875,0.0
1699116069.5005434,781.25,518.5546875,-251.46484375,-644.04296875,0.0
1699116069.5044413,-784.66796875,-758.7890625,-996.09375,-1000.0,0.0
1699116069.508339,251.46484375,173.828125,625.9765625,-197.75390625,0.0
1699116069.5122368,-1000.0,-1000.0,-737.3046875,-863.28125,0.0
1699116069.5161345,124.0234375,-156.73828125,-574.21875,42.96875,0.0
1699116069.5200324,-768.06640625,-774.90234375,728.515625,-1000.0,0.0
1699116069.5240395,697.75390625,550.78125,-933.10546875,-427.734375,0.0
1699116069.5279372,-873.046875,-1000.0,-103.515625,-894.53125,0.0
1699116069.531835,-321.2890625,-289.0625,-854.4921875,257.8125,0.0
1699116069.5357327,-929.6875,-929.19921875,528.3203125,-1000.0,0.0
1699116069.5396307,-892.578125,-923.33984375,-898.4375,-927.734375,0.0
1699116069.5435283,-285.15625,-389.6484375,165.0390625,673.33984375,0.0
1699116069.5474262,-442.3828125,-680.17578125,-1000.0,589.84375,0.0
1699116069.551324,984.86328125,885.25390625,-99.609375,-949.70703125,0.0
1699116069.5552218,-818.359375,-815.4296875,-952.63671875,-1000.0,0.0
1699116069.5591195,66.89453125,144.53125,496.09375,-48.33984375,0.0
1699116069.5630174,-788.0859375,-1000.0,-866.69921875,-971.19140625,0.0
1699116069.5669153,649.4140625,181.640625,-344.23828125,-368.65234375,0.0
1699116069.5709279,-760.7421875,-725.09765625,966.796875,-1000.0,0.0
1699116069.5748255,346.19140625,235.3515625,787.59765625,-203.125,0.0
1699116069.5787234,-1000.0,-1000.0,-515.13671875,-845.703125,0.0
1699116069.5826213,16.6015625,-277.83203125,-746.09375,162.59765625,0.0
1699116069.586519,-801.26953125,-835.9375,613.76953125,-1000.0,0.0
1699116069.590417,829.1015625,729.00390625,-906.25,-563.96484375,0.0
1699116069.5943146,-718.26171875,-923.33984375,-57.6171875,-946.2890625,0.0
1699116069.5982125,-332.51953125,-349.12109375,-963.8671875,254.8828125,0.0
1699116069.6021101,-952.1484375,-953.125,317.87109375,-1000.0,0.0
1699116069.606008,-855.46875,-886.71875,-932.6171875,-1000.0,0.0
1699116069.609906,-99.609375,-242.67578125,324.21875,336.9140625,0.0
1699116069.6138036,-510.7421875,-823.2421875,-971.6796875,699.70703125,0.0
1699116069.6177819,924.8046875,737.3046875,-274.90234375,-884.27734375,0.0
1699116069.6216798,-799.8046875,-788.0859375,-979.00390625,-1000.0,0.0
1699116069.6255774,90.33203125,158.203125,553.7109375,-176.7578125,0.0
1699116069.6294754,-907.2265625,-1000.0,-812.01171875,-901.85546875,0.0
1699116069.633373,487.3046875,32.71484375,-415.52734375,-171.875,0.0
1699116069.637271,-756.8359375,-730.95703125,859.86328125,-1000.0,0.0
1699116069.6411688,459.9609375,366.69921875,981.93359375,-211.9140625,0.0
1699116069.6450665,-1000.0,-1000.0,-193.84765625,-833.984375,0.0
1699116069.6489644,-186.03515625,-285.64453125,-851.07421875,239.74609375,0.0
1699116069.6528623,-872.55859375,-871.09375,525.87890625,-1000.0,0.0
1699116069.65676,994.140625,877.44140625,-882.8125,-782.2265625,0.0
1699116069.660658,-500.0,-739.2578125,-13.671875,875.0,0.0
1699116069.664641,-344.7265625,-496.09375,-1000.0,386.23046875,0.0
1699116069.6685388,-967.7734375,987.3046875,162.109375,-1000.0,0.0
1699116069.6724367,-836.42578125,-850.5859375,-939.453125,-1000.0,0.0
1699116069.6763344,32.71484375,-75.1953125,431.15234375,210.9375,0.0
1699116069.6802323,-572.265625,-954.58984375,-911.62109375,829.1015625,0.0
1699116069.6841302,864.2578125,529.78515625,-331.0546875,-728.02734375,0.0
1699116069.6880279,-797.8515625,-757.32421875,-963.37890625,-1000.0,0.0
1699116069.6919258,144.53125,166.50390625,598.6328125,-192.87109375,0.0
1699116069.6958237,-1000.0,-1000.0,-787.59765625,-870.60546875,0.0
1699116069.6997213,154.296875,-97.65625,-494.62890625,6.8359375,0.0
1699116069.7036192,-744.62890625,-757.8125,783.69140625,-1000.0,0.0
1699116069.7075171,560.546875,495.60546875,-949.70703125,-422.8515625,0.0
1699116069.7114866,-1000.0,-1000.0,-91.796875,-896.97265625,0.0
1699116069.7153842,-294.43359375,-292.48046875,-860.3515625,261.71875,0.0
1699116069.7192822,-923.828125,-899.4140625,510.7421875,-1000.0,0.0
1699116069.72318,-918.45703125,988.28125,-886.71875,-887.6953125,0.0
1699116069.727078,-226.5625,-471.6796875,99.12109375,653.3203125,0.0
1699116069.7309756,-254.39453125,-534.66796875,-1000.0,411.62109375,0.0
1699116069.7348735,-991.69921875,909.66796875,-15.13671875,-995.60546875,0.0
1699116069.7387714,-829.1015625,-824.70703125,-956.54296875,-1000.0,0.0
1699116069.7426693,58.59375,90.8203125,509.765625,73.73046875,0.0
1699116069.746567,-713.8671875,-1000.0,-836.9140625,957.51953125,0.0
1699116069.750465,741.69921875,304.6875,-347.65625,-525.87890625,0.0
1699116069.7543628,-774.4140625,-733.3984375,982.421875,-1000.0,0.0
1699116069.7583964,253.41796875,177.24609375,735.3515625,-203.61328125,0.0
1699116069.7622943,-1000.0,-1000.0,-592.7734375,-850.09765625,0.0
1699116069.766192,32.71484375,-229.98046875,-663.0859375,147.4609375,0.0
1699116069.7700899,-805.6640625,-799.31640625,667.96875,-1000.0,0.0
1699116069.7739878,818.84765625,607.421875,-914.55078125,-533.69140625,0.0
1699116069.7778857,-734.375,-1000.0,-45.8984375,-933.10546875,0.0
1699116069.7817836,-334.9609375,-291.50390625,-920.8984375,263.18359375,0.0
1699116069.7856812,-939.453125,-938.4765625,404.78515625,-1000.0,0.0
1699116069.7895792,-870.1171875,-900.390625,-900.87890625,-1000.0,0.0
1699116069.793477,-182.12890625,-311.03515625,261.71875,529.78515625,0.0
1699116069.797375,-429.19921875,-729.4921875,-1000.0,605.95703125,0.0
1699116069.8012729,975.5859375,847.16796875,-220.703125,-953.125,0.0
1699116069.8052924,-822.75390625,-807.6171875,-952.1484375,-1000.0,0.0
1699116069.8091903,99.609375,154.78515625,517.08984375,-83.0078125,0.0
1699116069.813088,-911.62109375,-1000.0,-865.234375,-873.53515625,0.0
1699116069.8169858,486.328125,90.8203125,-385.7421875,-186.5234375,0.0
1699116069.8208838,-748.046875,-724.609375,913.57421875,-1000.0,0.0
1699116069.8247817,409.1796875,287.109375,873.046875,-214.35546875,0.0
1699116069.8286796,-1000.0,-1000.0,-377.9296875,-834.47265625,0.0
1699116069.8325775,-83.49609375,-278.80859375,-820.80078125,248.53515625,0.0
1699116069.8364754,-845.703125,-854.4921875,556.640625,-1000.0,0.0
1699116069.8403733,950.68359375,805.17578125,-887.6953125,-636.71875,0.0
1699116069.844271,-551.7578125,-834.47265625,-34.66796875,-978.02734375,0.0
1699116069.8481688,-349.12109375,-418.45703125,-1000.0,265.13671875,0.0
1699116069.8521738,-958.0078125,-980.95703125,237.79296875,-1000.0,0.0
1699116069.8560717,-845.703125,-866.69921875,-928.7109375,-1000.0,0.0
1699116069.8599696,-69.3359375,-139.6484375,352.05078125,305.17578125,0.0
1699116069.8638675,-599.12109375,-899.90234375,-985.83984375,837.890625,0.0
1699116069.8677654,875.9765625,621.09375,-314.453125,-736.81640625,0.0
1699116069.8716633,-792.96875,-770.01953125,-959.47265625,-1000.0,0.0
1699116069.8755612,116.69921875,163.57421875,557.12890625,-185.05859375,0.0
1699116069.8794591,-1000.0,-1000.0,-833.984375,-879.39453125,0.0
1699116069.883357,313.4765625,-47.36328125,-410.15625,-63.96484375,0.0
1699116069.887255,-749.51171875,-745.1171875,844.7265625,-1000.0,0.0
1699116069.8911529,548.828125,430.6640625,-989.74609375,-320.3125,0.0
1699116069.8950508,-1000.0,-1000.0,-145.5078125,-862.3046875,0.0
1699116069.8990626,-198.73046875,-285.64453125,-859.86328125,255.37109375,0.0
1699116069.9029605,-889.16015625,-894.04296875,526.3671875,-1000.0,0.0
1699116069.9068584,-941.40625,959.9609375,-887.6953125,-781.25,0.0
1699116069.9107563,-376.953125,-610.3515625,50.78125,874.51171875,0.0
1699116069.9146543,-353.02734375,-568.84765625,-1000.0,419.921875,0.0
1699116069.9185522,-973.14453125,951.66015625,78.125,-1000.0,0.0
1699116069.92245,-831.54296875,-835.44921875,-971.19140625,-1000.0,0.0
1699116069.926348,42.96875,14.16015625,565.91796875,119.140625,0.0
1699116069.9302459,-655.2734375,-1000.0,-746.09375,945.80078125,0.0
1699116069.9341438,802.24609375,393.06640625,-359.375,-558.10546875,0.0
1699116069.9380417,-779.296875,-742.67578125,-995.60546875,-1000.0,0.0
1699116069.9419396,241.69921875,173.33984375,662.109375,-193.359375,0.0
1699116069.9459376,-1000.0,-1000.0,-699.21875,-861.328125,0.0
1699116069.9498355,122.55859375,-177.24609375,-598.14453125,44.43359375,0.0
1699116069.9537334,-760.7421875,-772.4609375,719.7265625,-1000.0,0.0
1699116069.9576313,679.6875,543.9453125,-925.78125,-409.1796875,0.0
1699116069.9615293,-816.40625,-1000.0,-72.265625,-950.1953125,0.0
1699116069.9654272,-232.91015625,-202.1484375,-879.39453125,166.9921875,0.0
1699116069.969325,-940.4296875,-939.94140625,460.44921875,-1000.0,0.0
1699116069.973223,-892.08984375,-921.38671875,-890.625,-947.75390625,0.0
1699116069.9771209,-282.71484375,-382.32421875,162.59765625,640.625,0.0
1699116069.9810188,-442.87109375,-694.82421875,-1000.0,592.7734375,0.0
1699116069.9849167,985.3515625,876.46484375,-136.23046875,-949.70703125,0.0
1699116069.9888146,-818.84765625,-814.453125,-958.984375,-1000.0,0.0
1699116069.9927971,66.40625,148.4375,517.08984375,-48.33984375,0.0
1699116069.996695,-787.59765625,-1000.0,-848.6328125,-970.703125,0.0
1699116070.000593,650.390625,156.73828125,-330.56640625,-368.65234375,0.0
1699116070.0044909,-762.6953125,-723.6328125,970.21484375,-1000.0,0.0
1699116070.0083888,350.09765625,237.3046875,820.80078125,-201.66015625,0.0
1699116070.0122867,-1000.0,-1000.0,-472.16796875,-845.703125,0.0
1699116070.0161846,-11.71875,-277.83203125,-706.0546875,147.4609375,0.0
1699116070.0200825,-805.17578125,-837.40234375,665.52734375,-1000.0,0.0
1699116070.0239806,832.51953125,733.88671875,-912.59765625,-533.69140625,0.0
1699116070.0278785,-720.21484375,-919.921875,-56.15234375,-929.19921875,0.0
1699116070.0317764,-331.54296875,-369.140625,-979.00390625,249.0234375,0.0
1699116070.0356743,-952.63671875,-958.984375,296.38671875,-1000.0,0.0
1699116070.0396442,-853.515625,-884.765625,-923.828125,-1000.0,0.0
1699116070.0435424,-87.890625,-238.28125,317.3828125,334.9609375,0.0
1699116070.0474403,-515.625,-847.65625,-1000.0,707.03125,0.0
1699116070.0513382,941.89453125,736.328125,-270.99609375,-902.83203125,0.0
1699116070.055236,-855.95703125,-841.796875,984.375,-1000.0,0.0
1699116070.059134,1.953125,70.3125,496.58203125,-88.8671875,0.0
1699116070.063032,-896.484375,-1000.0,-794.43359375,-913.0859375,0.0
1699116070.0669298,486.81640625,20.5078125,-424.8046875,-171.875,0.0
1699116070.070828,-759.765625,-735.3515625,851.07421875,-1000.0,0.0
1699116070.0747259,459.9609375,370.60546875,982.91015625,-211.9140625,0.0
1699116070.0786238,-1000.0,-1000.0,-208.984375,-833.984375,0.0
1699116070.0825217,-186.5234375,-285.64453125,-857.421875,239.74609375,0.0
1699116070.0864954,-880.859375,-871.09375,529.296875,-1000.0,0.0
1699116070.0903933,-983.3984375,877.9296875,-880.859375,-782.2265625,0.0
1699116070.0942912,-459.47265625,-738.76953125,0.9765625,875.0,0.0
1699116070.0981894,-347.16796875,-509.765625,-1000.0,386.23046875,0.0
1699116070.1020873,-968.75,980.46875,139.6484375,-1000.0,0.0
1699116070.1059852,-834.47265625,-848.6328125,-943.84765625,-1000.0,0.0
1699116070.109883,32.71484375,-66.40625,490.72265625,210.44921875,0.0
1699116070.113781,-572.265625,-965.8203125,-860.83984375,829.1015625,0.0
1699116070.117679,865.72265625,511.71875,-352.05078125,-727.5390625,0.0
1699116070.121577,-799.31640625,-755.859375,-969.23828125,-1000.0,0.0
1699116070.125475,148.4375,168.9453125,574.21875,-191.89453125,0.0
1699116070.1293728,-1000.0,-1000.0,-820.80078125,-869.62890625,0.0
1699116070.1334114,134.27734375,-121.58203125,-524.4140625,0.9765625,0.0
1699116070.1373093,-751.953125,-762.20703125,763.18359375,-1000.0,0.0
1699116070.1412072,597.16796875,498.53515625,-943.359375,-381.8359375,0.0
1699116070.1451054,-985.83984375,-1000.0,-81.0546875,-879.8828125,0.0
1699116070.1490033,-299.8046875,-288.57421875,-884.27734375,252.9296875,0.0
1699116070.1529012,-928.7109375,-909.66796875,484.86328125,-1000.0,0.0
1699116070.156799,-899.90234375,-985.83984375,-879.39453125,-907.2265625,0.0
1699116070.1606972,-283.69140625,-513.18359375,96.6796875,709.47265625,0.0
1699116070.1645951,-342.7734375,-632.8125,-1000.0,500.0,0.0
1699116070.168493,-980.95703125,916.015625,-12.6953125,-1000.0,0.0
1699116070.172391,-834.9609375,-825.68359375,-956.0546875,-1000.0,0.0
1699116070.176289,74.70703125,101.5625,519.04296875,81.54296875,0.0
1699116070.1803124,-794.921875,-1000.0,-832.03125,938.4765625,0.0
1699116070.1842103,653.3203125,257.32421875,-346.19140625,-555.17578125,0.0
1699116070.1881082,-757.8125,-731.4453125,976.07421875,-1000.0,0.0
1699116070.1920063,249.51171875,179.6875,784.66796875,-203.61328125,0.0
1699116070.1959043,-1000.0,-1000.0,-532.71484375,-850.5859375,0.0
1699116070.1998022,34.1796875,-249.0234375,-687.01171875,147.94921875,0.0
1699116070.2037003,-809.08203125,-806.640625,667.96875,-1000.0,0.0
1699116070.2075982,832.03125,621.09375,-912.109375,-533.69140625,0.0
1699116070.211496,-717.28515625,-1000.0,-48.828125,-933.10546875,0.0
1699116070.2153943,-337.890625,-292.48046875,-940.91796875,263.18359375,0.0
1699116070.2192922,-941.89453125,-938.96484375,371.58203125,-1000.0,0.0
1699116070.22319,-867.1875,-900.390625,-906.25,-1000.0,0.0
1699116070.2272182,-180.17578125,-290.52734375,274.4140625,529.78515625,0.0
1699116070.2311163,-489.2578125,-771.97265625,-1000.0,605.46875,0.0
1699116070.2350142,950.1953125,799.8046875,-250.0,-953.125,0.0
1699116070.2389123,-812.5,-799.8046875,-950.1953125,-1000.0,0.0
1699116070.2428102,94.7265625,156.25,500.0,-82.51953125,0.0
1699116070.2467084,-908.203125,-1000.0,-910.64453125,-873.53515625,0.0
1699116070.2506063,485.3515625,65.4296875,-379.39453125,-186.5234375,0.0
1699116070.2545042,-750.9765625,-727.05078125,912.109375,-1000.0,0.0
1699116070.2584023,449.21875,292.48046875,897.94921875,-214.35546875,0.0
1699116070.2623003,-1000.0,-1000.0,-354.98046875,-833.984375,0.0
1699116070.2661984,-91.796875,-278.3203125,-837.40234375,249.0234375,0.0
1699116070.2700963,-842.28515625,-858.88671875,556.640625,-1000.0,0.0
1699116070.274092,950.1953125,817.3828125,-892.08984375,-636.71875,0.0
1699116070.2779899,-551.7578125,-818.359375,-24.4140625,-978.02734375,0.0
1699116070.2818878,-349.12109375,-450.1953125,-1000.0,265.13671875,0.0
1699116070.285786,-958.0078125,-993.65234375,196.2890625,-1000.0,0.0
1699116070.2896838,-845.703125,-862.3046875,-937.5,-1000.0,0.0
1699116070.293582,-68.84765625,-128.90625,431.640625,311.5234375,0.0
1699116070.2974799,-599.609375,-927.24609375,-901.3671875,808.59375,0.0
1699116070.301378,875.9765625,582.51953125,-327.1484375,-768.06640625,0.0
1699116070.305276,-792.96875,-765.13671875,-964.35546875,-1000.0,0.0
1699116070.309174,117.1875,164.55078125,577.1484375,-186.03515625,0.0
1699116070.313072,-1000.0,-1000.0,-803.22265625,-879.39453125,0.0
1699116070.31697,313.4765625,-62.5,-471.6796875,-63.96484375,0.0
1699116070.3209896,-749.51171875,-747.55859375,797.8515625,-1000.0,0.0
1699116070.3248875,548.33984375,439.94140625,-959.9609375,-325.1953125,0.0
1699116070.3287857,-1000.0,-1000.0,-84.9609375,-846.19140625,0.0
1699116070.3326836,-198.73046875,-282.2265625,-865.234375,219.23828125,0.0
1699116070.3365817,-889.16015625,-905.76171875,505.37109375,-1000.0,0.0
1699116070.3404799,-941.40625,941.40625,-881.8359375,-591.796875,0.0
1699116070.3443778,-376.953125,-601.5625,81.0546875,863.28125,0.0
1699116070.348276,-352.5390625,-587.890625,-1000.0,435.546875,0.0
1699116070.3521738,-973.14453125,940.91796875,-9.765625,-1000.0,0.0
1699116070.356072,-831.54296875,-833.984375,-960.44921875,-1000.0,0.0
1699116070.3599699,42.96875,19.53125,539.0625,120.60546875,0.0
1699116070.363868,-655.2734375,-1000.0,-800.78125,944.82421875,0.0
1699116070.3678536,802.734375,359.86328125,-346.6796875,-558.10546875,0.0
1699116070.3717518,-779.296875,-739.74609375,995.1171875,-1000.0,0.0
1699116070.37565,241.69921875,174.31640625,717.7734375,-193.359375,0.0
1699116070.3795478,-1000.0,-1000.0,-623.046875,-861.328125,0.0
1699116070.383446,124.0234375,-188.96484375,-639.16015625,42.48046875,0.0
1699116070.387344,-767.578125,-784.1796875,695.3125,-1000.0,0.0
1699116070.391242,698.2421875,571.2890625,-913.57421875,-427.734375,0.0
1699116070.39514,-874.0234375,-1000.0,-47.8515625,-895.01953125,0.0
1699116070.399038,-318.84765625,-290.52734375,-919.43359375,259.765625,0.0
1699116070.4029362,-933.59375,-932.12890625,413.0859375,-1000.0,0.0
1699116070.4068341,-886.23046875,-913.57421875,-889.16015625,-908.203125,0.0
1699116070.4107323,-252.9296875,-366.69921875,203.61328125,703.61328125,0.0
1699116070.414704,-438.4765625,-714.35546875,-1000.0,586.42578125,0.0
1699116070.4186022,981.4453125,864.74609375,-183.10546875,-949.70703125,0.0
1699116070.4225004,-816.89453125,-811.5234375,-950.1953125,-1000.0,0.0
1699116070.4263983,66.40625,151.3671875,521.97265625,-48.33984375,0.0
1699116070.4302964,-788.0859375,-1000.0,-855.95703125,-971.19140625,0.0
1699116070.4341943,650.87890625,130.859375,-333.0078125,-368.65234375,0.0
1699116070.4380925,-767.578125,-722.65625,969.23828125,-1000.0,0.0
1699116070.4419906,357.421875,248.53515625,842.28515625,-201.66015625,0.0
1699116070.4458885,-1000.0,-1000.0,-435.546875,-845.703125,0.0
1699116070.4497867,-72.75390625,-278.80859375,-794.921875,147.94921875,0.0
1699116070.4536848,-813.4765625,-838.8671875,589.84375,-1000.0,0.0
1699116070.4575827,838.37890625,739.74609375,-895.5078125,-533.69140625,0.0
1699116070.461542,-724.609375,-915.0390625,-47.36328125,-929.19921875,0.0
1699116070.46544,-329.58984375,-390.13671875,-992.67578125,249.51171875,0.0
1699116070.469338,-954.58984375,-966.796875,274.4140625,-1000.0,0.0
1699116070.473236,-852.05078125,-880.859375,-926.7578125,-1000.0,0.0
1699116070.4771342,-76.171875,-229.98046875,377.9296875,344.23828125,0.0
1699116070.4810321,-505.859375,-856.93359375,-946.2890625,699.21875,0.0
1699116070.4849303,922.36328125,698.2421875,-305.6640625,-884.27734375,0.0
1699116070.4888284,-800.78125,-783.203125,-969.7265625,-1000.0,0.0
1699116070.4927263,97.16796875,161.1328125,557.12890625,-177.24609375,0.0
1699116070.4966245,-930.6640625,-1000.0,-817.3828125,-901.85546875,0.0
1699116070.5005226,450.68359375,-4.8828125,-443.359375,-171.875,0.0
1699116070.5044205,-753.90625,-736.81640625,831.0546875,-1000.0,0.0
1699116070.5084436,459.9609375,377.44140625,-999.0234375,-211.42578125,0.0
1699116070.5123417,-1000.0,-1000.0,-153.3203125,-833.984375,0.0
1699116070.5162396,-183.10546875,-286.1328125,-854.98046875,241.2109375,0.0
1699116070.5201378,-889.16015625,-871.58203125,517.578125,-1000.0,0.0
1699116070.524036,-959.47265625,878.41796875,-878.90625,-753.90625,0.0
1699116070.527934,-414.0625,-738.28125,50.29296875,905.76171875,0.0
1699116070.531832,-350.5859375,-525.390625,-1000.0,379.8828125,0.0
1699116070.5357301,-969.7265625,974.12109375,72.265625,-1000.0,0.0
1699116070.5396283,-833.0078125,-848.14453125,-944.3359375,-1000.0,0.0
1699116070.5435264,32.71484375,-54.6875,511.71875,210.9375,0.0
1699116070.5474243,-572.265625,-992.67578125,-849.12109375,829.1015625,0.0
1699116070.5513225,865.234375,467.7734375,-352.05078125,-727.05078125,0.0
1699116070.5553493,-799.31640625,-751.953125,-979.00390625,-1000.0,0.0
1699116070.5592475,148.92578125,170.8984375,642.08984375,-187.01171875,0.0
1699116070.5631456,-1000.0,-1000.0,-729.98046875,-877.9296875,0.0
1699116070.5670435,137.20703125,-139.6484375,-558.10546875,-42.48046875,0.0
1699116070.5709417,-763.18359375,-765.625,749.51171875,-1000.0,0.0
1699116070.5748398,646.97265625,500.9765625,-933.10546875,-374.0234375,0.0
1699116070.578738,-931.640625,-1000.0,-65.91796875,-881.34765625,0.0
1699116070.582636,-310.546875,-287.59765625,-902.83203125,252.9296875,0.0
1699116070.586534,-926.7578125,-913.0859375,459.47265625,-1000.0,0.0
1699116070.5904322,-899.4140625,-977.5390625,-876.953125,-907.71484375,0.0
1699116070.5943303,-283.203125,-495.1171875,126.953125,709.47265625,0.0
1699116070.5982285,-342.7734375,-659.1796875,-1000.0,500.0,0.0
1699116070.6022406,-980.95703125,899.4140625,-116.69921875,-1000.0,0.0
1699116070.6061387,-834.47265625,-822.75390625,-961.9140625,-1000.0,0.0
1699116070.6100368,74.70703125,115.234375,530.76171875,81.54296875,0.0
1699116070.613935,-794.43359375,-1000.0,-831.54296875,938.4765625,0.0
1699116070.6178331,652.83203125,210.9375,-337.40234375,-555.17578125,0.0
1699116070.621731,-757.8125,-729.00390625,971.6796875,-1000.0,0.0
1699116070.6256292,267.578125,182.12890625,821.77734375,-203.61328125,0.0
1699116070.6295273,-1000.0,-1000.0,-477.5390625,-850.5859375,0.0
