time,TP9,AF7,AF8,TP10,Right AUX
1699110191.028561,-25.87890625,7.32421875,-43.45703125,-35.15625,0.0
1699110191.0324612,85.44921875,37.59765625,329.58984375,0.48828125,0.0
1699110191.0363612,-76.66015625,-85.9375,-86.42578125,-17.08984375,0.0
1699110191.0402615,-154.78515625,-95.21484375,-402.83203125,-40.52734375,0.0
1699110191.0441616,-62.01171875,-30.2734375,-235.3515625,-27.83203125,0.0
1699110191.0480616,97.16796875,19.04296875,240.72265625,1.46484375,0.0
1699110191.051962,-12.6953125,-99.609375,-107.421875,-10.7421875,0.0
1699110191.055862,-154.78515625,-150.87890625,-594.7265625,-50.78125,0.0
1699110191.0597622,-111.328125,-13.671875,-304.6875,-50.78125,0.0
1699110191.0636623,68.359375,53.22265625,152.34375,-21.484375,0.0
1699110191.0675623,50.29296875,3.90625,219.23828125,-18.06640625,0.0
1699110191.0714626,-115.234375,-71.77734375,-184.5703125,-43.45703125,0.0
1699110191.0754132,-119.62890625,-48.828125,-372.55859375,-52.24609375,0.0
1699110191.0793133,36.1328125,11.71875,-4.39453125,-19.53125,0.0
1699110191.0832136,92.28515625,11.23046875,239.74609375,-20.01953125,0.0
1699110191.0871136,-90.33203125,-43.9453125,-39.0625,-51.7578125,0.0
1699110191.091014,-132.8125,-73.2421875,-350.5859375,-51.7578125,0.0
1699110191.094914,-11.23046875,-63.96484375,-270.01953125,-38.57421875,0.0
1699110191.098814,118.65234375,-26.85546875,152.83203125,-2.44140625,0.0
1699110191.1027143,-27.34375,-26.3671875,-25.87890625,-29.296875,0.0
1699110191.1066144,-130.859375,-30.2734375,-314.94140625,-48.828125,0.0
1699110191.1105146,-43.45703125,-48.828125,-323.73046875,-37.59765625,0.0
1699110191.1144147,119.140625,31.25,127.44140625,-21.484375,0.0
1699110191.1183147,9.765625,30.2734375,240.72265625,-23.4375,0.0
1699110191.1222575,-137.6953125,-68.359375,-207.51953125,-41.9921875,0.0
1699110191.1261575,-100.5859375,-87.890625,-360.83984375,-41.9921875,0.0
1699110191.1300578,72.265625,19.53125,109.375,-15.13671875,0.0
1699110191.1339579,61.03515625,44.921875,300.78125,-15.625,0.0
1699110191.1378582,-118.1640625,-79.1015625,-121.58203125,-48.828125,0.0
1699110191.1417582,-128.90625,-134.765625,-461.9140625,-48.828125,0.0
1699110191.1456583,19.53125,-25.390625,-91.30859375,-24.4140625,0.0
1699110191.1495585,81.54296875,55.6640625,349.609375,-11.23046875,0.0
1699110191.1534586,-101.5625,-66.40625,-46.38671875,-49.8046875,0.0
1699110191.157359,-161.62109375,-160.64453125,-482.421875,-59.08203125,0.0
1699110191.161259,-34.1796875,-40.52734375,-139.6484375,-30.76171875,0.0
1699110191.165159,90.8203125,67.87109375,367.1875,-20.99609375,0.0
1699110191.1691473,-64.453125,-69.3359375,-60.05859375,-34.66796875,0.0
1699110191.1730473,-148.92578125,-115.234375,-456.0546875,-48.33984375,0.0
1699110191.1769476,-75.1953125,-29.296875,-258.7890625,-44.921875,0.0
1699110191.1808476,94.23828125,63.96484375,277.83203125,-9.765625,0.0
1699110191.184748,16.6015625,-24.90234375,138.18359375,-13.18359375,0.0
1699110191.188648,-145.99609375,-147.4609375,-424.31640625,-41.015625,0.0
1699110191.1925483,-117.67578125,-98.14453125,-459.9609375,-49.8046875,0.0
1699110191.1964483,61.03515625,22.4609375,34.1796875,-26.3671875,0.0
1699110191.2003486,68.359375,-4.8828125,110.3515625,-13.18359375,0.0
1699110191.2042487,-107.91015625,-109.86328125,-390.625,-41.50390625,0.0
1699110191.208149,-118.65234375,-32.71484375,-378.41796875,-44.921875,0.0
1699110191.212049,32.2265625,44.43359375,29.296875,-24.4140625,0.0
1699110191.2160408,106.93359375,38.0859375,236.328125,-11.71875,0.0
1699110191.2199411,-68.359375,-44.921875,-72.265625,-29.296875,0.0
1699110191.2238412,-135.25390625,-67.87109375,-333.984375,-62.5,0.0
1699110191.2277415,-32.2265625,-40.52734375,-302.734375,-45.41015625,0.0
1699110191.2316415,121.09375,33.69140625,217.28515625,2.44140625,0.0
1699110191.2355418,-13.18359375,-32.2265625,-6.34765625,-6.8359375,0.0
1699110191.2394419,-126.953125,-65.91796875,-412.109375,-40.52734375,0.0
1699110191.2433422,-58.10546875,-13.18359375,-296.38671875,-50.29296875,0.0
1699110191.2472422,114.74609375,-23.92578125,-14.6484375,0.0,0.0
1699110191.2511425,47.8515625,-19.53125,126.46484375,5.37109375,0.0
1699110191.2550426,-132.32421875,-18.5546875,-93.26171875,-46.38671875,0.0
1699110191.2589428,-108.88671875,-61.03515625,-382.8125,-39.0625,0.0
1699110191.262925,79.1015625,13.18359375,-63.96484375,6.8359375,0.0
1699110191.2668252,83.49609375,57.12890625,278.3203125,-0.48828125,0.0
1699110191.2707253,-104.98046875,-42.96875,-55.6640625,-40.0390625,0.0
1699110191.2746255,-118.65234375,-99.12109375,-408.203125,-45.41015625,0.0
1699110191.2785256,23.92578125,-22.4609375,-120.60546875,-14.16015625,0.0
1699110191.2824259,112.79296875,36.62109375,267.578125,0.48828125,0.0
1699110191.286326,-64.94140625,-53.7109375,-130.37109375,-28.80859375,0.0
1699110191.2902262,-143.5546875,-125.9765625,-534.66796875,-46.38671875,0.0
1699110191.2941265,-48.828125,-89.35546875,-465.33203125,-35.64453125,0.0
1699110191.2980266,98.6328125,93.26171875,244.62890625,-9.27734375,0.0
1699110191.3019269,-19.04296875,26.3671875,155.2734375,-23.92578125,0.0
1699110191.305827,-144.04296875,-101.5625,-373.53515625,-45.8984375,0.0
1699110191.309798,-83.984375,-45.41015625,-305.17578125,-38.57421875,0.0
1699110191.313698,93.75,72.265625,245.60546875,-15.625,0.0
1699110191.3175983,37.109375,13.671875,248.53515625,-32.71484375,0.0
1699110191.3214984,-136.23046875,-110.83984375,-270.5078125,-52.734375,0.0
1699110191.3253987,-133.7890625,-96.6796875,-437.98828125,-55.6640625,0.0
1699110191.3292987,26.85546875,-13.18359375,-63.4765625,-35.15625,0.0
1699110191.333199,61.03515625,8.30078125,225.5859375,-28.80859375,0.0
1699110191.337099,-120.60546875,-142.08984375,-335.9375,-60.546875,0.0
1699110191.3409994,-155.2734375,-146.97265625,-628.90625,-59.08203125,0.0
1699110191.3448997,-18.06640625,11.71875,-132.8125,-30.2734375,0.0
1699110191.3487997,88.8671875,43.9453125,274.90234375,-8.30078125,0.0
1699110191.3527,-76.66015625,-53.7109375,-46.875,-32.2265625,0.0
1699110191.3566608,-148.4375,-72.75390625,-322.265625,-43.45703125,0.0
1699110191.3605611,-46.875,-14.16015625,-149.90234375,-28.3203125,0.0
1699110191.3644612,108.3984375,31.73828125,230.95703125,-3.90625,0.0
1699110191.3683615,2.44140625,-32.71484375,136.23046875,-20.99609375,0.0
1699110191.3722618,-125.0,-77.63671875,-229.4921875,-42.48046875,0.0
1699110191.3761618,-80.078125,-83.49609375,-421.875,-30.76171875,0.0
1699110191.380062,92.28515625,-22.94921875,-3.41796875,-5.37109375,0.0
1699110191.3839622,61.03515625,-37.59765625,-3.90625,-9.27734375,0.0
1699110191.3878624,-106.4453125,-34.1796875,-313.4765625,-33.203125,0.0
1699110191.3917625,-103.02734375,-20.99609375,-277.83203125,-41.9921875,0.0
1699110191.3956628,53.7109375,8.30078125,-3.90625,-13.671875,0.0
1699110191.399563,96.6796875,15.13671875,174.8046875,2.9296875,0.0
1699110191.4035282,-83.0078125,-58.10546875,-171.875,-35.64453125,0.0
1699110191.4074285,-122.55859375,-62.5,-367.1875,-43.9453125,0.0
1699110191.4113286,3.90625,-22.94921875,-194.3359375,-20.99609375,0.0
1699110191.4152288,124.51171875,49.8046875,244.62890625,6.34765625,0.0
1699110191.419129,-33.69140625,-29.78515625,15.13671875,-12.6953125,0.0
1699110191.4230292,-120.1171875,-95.703125,-425.29296875,-31.25,0.0
1699110191.4269295,-24.4140625,-104.4921875,-519.53125,-25.87890625,0.0
1699110191.4308295,130.859375,19.53125,0.0,1.46484375,0.0
1699110191.4347298,21.97265625,53.7109375,229.00390625,-10.7421875,0.0
1699110191.4386299,-120.60546875,-80.078125,-304.6875,-48.33984375,0.0
1699110191.4425302,-81.54296875,-58.10546875,-421.875,-29.78515625,0.0
1699110191.4464304,92.28515625,68.84765625,140.625,4.8828125,0.0
1699110191.4503849,71.77734375,65.4296875,308.10546875,-1.953125,0.0
1699110191.4542851,-105.95703125,-69.82421875,-210.9375,-26.3671875,0.0
1699110191.4581852,-114.74609375,-103.515625,-504.39453125,-33.69140625,0.0
1699110191.4620855,28.80859375,37.59765625,-3.41796875,-18.06640625,0.0
1699110191.4659858,100.5859375,68.359375,305.6640625,1.953125,0.0
1699110191.4698858,-75.68359375,-96.19140625,-270.01953125,-28.3203125,0.0
1699110191.473786,-146.97265625,-179.6875,-638.18359375,-49.31640625,0.0
1699110191.4776862,-35.15625,-12.6953125,-193.359375,-48.33984375,0.0
1699110191.4815865,98.6328125,115.72265625,370.1171875,-26.85546875,0.0
1699110191.4854867,-44.921875,-37.109375,-30.76171875,-40.52734375,0.0
1699110191.4893868,-140.625,-93.75,-440.4296875,-57.12890625,0.0
1699110191.493287,-71.77734375,-33.69140625,-291.50390625,-37.109375,0.0
1699110191.497287,91.796875,49.8046875,211.9140625,-10.7421875,0.0
1699110191.5011873,6.34765625,-17.578125,96.6796875,-17.578125,0.0
1699110191.5050874,-143.5546875,-97.16796875,-349.609375,-44.43359375,0.0
1699110191.5089877,-118.65234375,-49.31640625,-292.96875,-49.8046875,0.0
1699110191.512888,32.2265625,20.99609375,138.671875,-24.90234375,0.0
1699110191.516788,37.59765625,-22.4609375,117.67578125,-23.92578125,0.0
1699110191.5206883,-138.18359375,-122.0703125,-401.3671875,-54.19921875,0.0
1699110191.5245886,-157.2265625,-76.171875,-444.82421875,-64.94140625,0.0
1699110191.5284886,-2.9296875,16.11328125,-48.828125,-38.0859375,0.0
1699110191.532389,74.21875,-14.6484375,133.7890625,-17.08984375,0.0
1699110191.5362892,-108.88671875,-68.84765625,-174.31640625,-52.734375,0.0
1699110191.5401893,-166.015625,-47.8515625,-317.3828125,-73.2421875,0.0
1699110191.5442345,-43.9453125,-30.76171875,-227.05078125,-52.24609375,0.0
1699110191.5481348,98.6328125,31.25,216.796875,-18.5546875,0.0
1699110191.552035,-40.0390625,-12.20703125,73.73046875,-33.69140625,0.0
1699110191.5559351,-148.92578125,-66.40625,-293.45703125,-56.640625,0.0
1699110191.5598354,-83.49609375,-70.80078125,-366.2109375,-46.875,0.0
1699110191.5637357,87.40234375,-13.671875,11.71875,-12.20703125,0.0
1699110191.5676358,23.92578125,-16.11328125,60.546875,-20.01953125,0.0
1699110191.571536,-129.8828125,-83.49609375,-391.11328125,-49.31640625,0.0
1699110191.5754364,-104.4921875,-112.3046875,-560.05859375,-46.38671875,0.0
1699110191.5793366,57.6171875,-21.484375,-176.26953125,-12.6953125,0.0
1699110191.5832367,63.4765625,85.44921875,284.1796875,-7.32421875,0.0
1699110191.587137,-109.86328125,-24.4140625,-44.43359375,-38.0859375,0.0
1699110191.5911176,-126.46484375,-94.7265625,-385.7421875,-37.59765625,0.0
1699110191.595018,10.7421875,0.0,-66.89453125,-12.6953125,0.0
1699110191.5989182,95.21484375,72.265625,348.14453125,-2.44140625,0.0
1699110191.6028185,-80.078125,-40.0390625,-11.71875,-30.2734375,0.0
1699110191.6067185,-147.94921875,-124.51171875,-452.1484375,-46.38671875,0.0
1699110191.6106188,-39.55078125,-63.4765625,-369.140625,-25.87890625,0.0
1699110191.6145191,114.74609375,65.91796875,231.4453125,3.41796875,0.0
1699110191.6184194,-15.13671875,-1.46484375,90.8203125,-16.11328125,0.0
1699110191.6223195,-138.18359375,-133.30078125,-466.30859375,-40.52734375,0.0
1699110191.6262197,-77.1484375,-51.26953125,-371.58203125,-33.203125,0.0
1699110191.63012,97.65625,71.2890625,173.828125,-0.9765625,0.0
1699110191.6340203,44.921875,-10.25390625,79.1015625,-7.8125,0.0
1699110191.6380186,-125.0,-145.01953125,-481.4453125,-42.48046875,0.0
1699110191.641919,-111.81640625,-64.94140625,-455.078125,-42.48046875,0.0
1699110191.6458192,51.7578125,77.63671875,77.63671875,-15.625,0.0
1699110191.6497195,83.984375,22.94921875,215.8203125,-4.8828125,0.0
1699110191.6536195,-102.05078125,-94.7265625,-302.734375,-36.1328125,0.0
1699110191.6575198,-133.30078125,-103.515625,-528.80859375,-45.41015625,0.0
1699110191.66142,-3.41796875,-7.8125,-163.57421875,-25.390625,0.0
1699110191.6653204,93.75,7.8125,157.2265625,-15.625,0.0
1699110191.6692207,-69.82421875,-100.5859375,-252.9296875,-34.1796875,0.0
1699110191.6731207,-155.2734375,-49.8046875,-366.2109375,-62.01171875,0.0
1699110191.677021,-62.01171875,3.90625,-137.6953125,-60.05859375,0.0
1699110191.6809213,92.28515625,32.2265625,188.4765625,-18.5546875,0.0
1699110191.6848958,-36.62109375,-28.80859375,111.81640625,-42.48046875,0.0
1699110191.6887958,-176.7578125,-99.12109375,-294.43359375,-72.265625,0.0
1699110191.692696,-125.9765625,-71.77734375,-382.8125,-65.91796875,0.0
1699110191.6965964,52.734375,25.390625,150.390625,-33.69140625,0.0
1699110191.7004967,20.99609375,3.41796875,229.4921875,-36.1328125,0.0
1699110191.704397,-155.2734375,-123.53515625,-313.96484375,-63.96484375,0.0
1699110191.7082973,-156.25,-116.2109375,-494.140625,-53.7109375,0.0
1699110191.7121973,-2.44140625,-66.40625,-295.8984375,-33.69140625,0.0
1699110191.7160976,44.921875,-6.8359375,80.56640625,-37.59765625,0.0
1699110191.719998,-125.9765625,-7.32421875,6.8359375,-60.05859375,0.0
1699110191.7238982,-159.66796875,-88.37890625,-413.57421875,-60.546875,0.0
1699110191.7277985,-34.66796875,-29.78515625,-155.2734375,-43.9453125,0.0
1699110191.7317617,81.0546875,71.2890625,361.81640625,-19.53125,0.0
1699110191.735662,-63.96484375,-20.99609375,67.3828125,-37.59765625,0.0
1699110191.7395623,-148.4375,-111.81640625,-406.73828125,-53.22265625,0.0
1699110191.7434626,-59.5703125,-71.2890625,-357.421875,-40.52734375,0.0
1699110191.7473629,107.91015625,29.296875,204.1015625,-15.625,0.0
1699110191.7512631,6.8359375,-13.671875,72.75390625,-27.34375,0.0
1699110191.7551634,-128.41796875,-110.83984375,-491.2109375,-51.7578125,0.0
1699110191.7590635,-79.1015625,-98.14453125,-555.17578125,-37.59765625,0.0
1699110191.7629638,97.65625,90.33203125,128.41796875,-8.7890625,0.0
1699110191.766864,82.51953125,93.75,312.98828125,-9.765625,0.0
1699110191.7707644,-84.9609375,-76.171875,-231.4453125,-25.87890625,0.0
1699110191.7746646,-97.65625,-75.1953125,-454.1015625,-29.78515625,0.0
1699110191.7786741,47.36328125,42.48046875,-1.953125,-12.20703125,0.0
1699110191.7825744,112.79296875,46.38671875,325.68359375,1.46484375,0.0
1699110191.7864747,-73.2421875,-80.56640625,-129.8828125,-25.87890625,0.0
1699110191.790375,-126.46484375,-75.1953125,-423.33984375,-42.96875,0.0
1699110191.794275,-3.41796875,7.8125,-90.8203125,-19.53125,0.0
1699110191.7981753,121.09375,36.62109375,302.734375,12.6953125,0.0
1699110191.8020756,-24.90234375,-110.3515625,-215.33203125,-1.46484375,0.0
1699110191.805976,-121.58203125,-118.1640625,-560.05859375,-18.5546875,0.0
1699110191.8098762,-53.22265625,23.4375,-174.8046875,-18.06640625,0.0
1699110191.8137765,107.91015625,51.26953125,230.95703125,9.27734375,0.0
1699110191.8176768,20.99609375,-22.94921875,79.58984375,0.48828125,0.0
1699110191.821577,-132.32421875,-72.75390625,-311.03515625,-29.78515625,0.0
1699110191.8255343,-96.19140625,-43.9453125,-313.4765625,-20.5078125,0.0
1699110191.8294346,77.1484375,13.671875,79.58984375,13.671875,0.0
1699110191.833335,64.453125,-8.7890625,229.00390625,12.20703125,0.0
1699110191.837235,-125.48828125,-86.42578125,-115.72265625,-27.83203125,0.0
1699110191.8411353,-148.92578125,-97.65625,-400.390625,-41.50390625,0.0
1699110191.8450356,-11.23046875,-57.12890625,-120.60546875,-25.87890625,0.0
1699110191.8489358,66.40625,-41.50390625,194.3359375,-15.625,0.0
1699110191.8528361,-108.88671875,-85.9375,-170.8984375,-47.36328125,0.0
1699110191.8567364,-169.43359375,-74.21875,-366.2109375,-63.4765625,0.0
1699110191.8606367,-53.22265625,-83.984375,-329.58984375,-39.55078125,0.0
1699110191.864537,82.51953125,-31.25,64.453125,-16.11328125,0.0
1699110191.8684373,-61.03515625,-1.46484375,181.15234375,-46.38671875,0.0
1699110191.8724396,-164.0625,-74.70703125,-208.984375,-69.3359375,0.0
1699110191.87634,-91.796875,-88.37890625,-318.84765625,-55.6640625,0.0
1699110191.8802402,72.75390625,18.06640625,173.33984375,-28.3203125,0.0
1699110191.8841405,6.8359375,11.23046875,243.65234375,-39.0625,0.0
1699110191.8880405,-146.484375,-90.33203125,-224.12109375,-70.80078125,0.0
1699110191.8919408,-131.34765625,-140.625,-455.078125,-68.359375,0.0
1699110191.8958411,35.15625,-21.484375,-5.859375,-38.0859375,0.0
1699110191.8997414,57.12890625,53.22265625,310.05859375,-37.59765625,0.0
1699110191.9036417,-117.1875,-73.2421875,-111.328125,-63.4765625,0.0
1699110191.907542,-138.671875,-123.046875,-469.23828125,-66.89453125,0.0
1699110191.9114423,2.44140625,6.34765625,-48.828125,-42.48046875,0.0
1699110191.9153426,91.30859375,59.5703125,380.37109375,-17.578125,0.0
1699110191.9193347,-80.078125,-92.7734375,-112.79296875,-44.921875,0.0
1699110191.923235,-139.16015625,-113.28125,-457.03125,-62.5,0.0
1699110191.9271352,-36.1328125,-1.953125,-80.56640625,-46.875,0.0
1699110191.9310355,116.69921875,84.47265625,414.55078125,-16.11328125,0.0
1699110191.9349358,-4.39453125,-38.0859375,36.62109375,-26.85546875,0.0
1699110191.938836,-135.25390625,-153.80859375,-500.0,-52.734375,0.0
1699110191.9427364,-76.66015625,-93.26171875,-397.4609375,-43.45703125,0.0
1699110191.9466367,89.35546875,25.390625,181.15234375,-12.6953125,0.0
1699110191.950537,24.4140625,-47.8515625,109.86328125,-18.06640625,0.0
1699110191.9544373,-128.41796875,-151.3671875,-436.03515625,-38.57421875,0.0
1699110191.9583375,-109.86328125,-42.48046875,-314.94140625,-40.0390625,0.0
1699110191.9622378,45.41015625,54.19921875,161.62109375,-11.71875,0.0
1699110191.9662337,80.078125,17.08984375,210.9375,2.44140625,0.0
1699110191.970134,-96.19140625,-70.80078125,-140.13671875,-18.06640625,0.0
1699110191.9740343,-128.90625,-83.984375,-335.44921875,-27.83203125,0.0
1699110191.9779346,0.9765625,-49.8046875,-214.35546875,-20.01953125,0.0
1699110191.981835,106.93359375,5.37109375,258.7890625,-5.37109375,0.0
1699110191.9857352,-62.5,-84.9609375,-69.82421875,-26.85546875,0.0
1699110191.9896355,-151.3671875,-112.3046875,-457.03125,-39.0625,0.0
1699110191.9935358,-48.828125,-24.4140625,-170.41015625,-29.296875,0.0
1699110191.997436,109.375,-29.296875,132.32421875,0.9765625,0.0
1699110192.0013363,-13.18359375,-66.89453125,40.0390625,-13.18359375,0.0
1699110192.0052366,-141.6015625,-33.203125,-117.67578125,-41.9921875,0.0
1699110192.009137,-80.078125,-66.89453125,-291.50390625,-42.48046875,0.0
1699110192.0131083,86.42578125,4.8828125,83.0078125,-17.08984375,0.0
1699110192.0170085,42.96875,38.0859375,277.83203125,-17.578125,0.0
1699110192.0209088,-124.0234375,-59.08203125,-94.7265625,-44.921875,0.0
1699110192.0248091,-115.72265625,-91.796875,-367.1875,-44.921875,0.0
1699110192.0287094,17.578125,-31.25,-127.44140625,-25.390625,0.0
1699110192.03261,44.921875,-18.06640625,151.85546875,-13.18359375,0.0
1699110192.0365102,-99.609375,-87.890625,-204.58984375,-37.59765625,0.0
1699110192.0404105,-131.34765625,-133.7890625,-555.6640625,-45.41015625,0.0
1699110192.0443108,-18.5546875,-69.3359375,-318.359375,-27.83203125,0.0
1699110192.048211,92.28515625,72.75390625,284.1796875,-25.390625,0.0
1699110192.0521114,-52.24609375,-12.20703125,114.74609375,-48.33984375,0.0
1699110192.0560117,-152.34375,-110.83984375,-332.03125,-64.94140625,0.0
1699110192.0599875,-81.0546875,-50.78125,-261.71875,-62.98828125,0.0
1699110192.0638878,76.66015625,66.40625,325.68359375,-33.69140625,0.0
1699110192.0677884,-19.53125,-21.97265625,193.359375,-40.0390625,0.0
1699110192.0716887,-151.3671875,-126.953125,-325.1953125,-52.734375,0.0
1699110192.075589,-118.65234375,-78.125,-367.1875,-45.41015625,0.0
1699110192.0794892,42.96875,0.9765625,61.5234375,-12.6953125,0.0
1699110192.0833895,29.296875,-10.25390625,208.49609375,-8.7890625,0.0
1699110192.0872898,-131.8359375,-151.85546875,-403.3203125,-36.1328125,0.0
1699110192.09119,-133.30078125,-141.6015625,-623.046875,-35.15625,0.0
1699110192.0950904,14.6484375,62.01171875,57.6171875,-20.99609375,0.0
1699110192.0989907,80.56640625,61.5234375,301.7578125,-9.27734375,0.0
1699110192.102891,-89.35546875,-75.68359375,-199.21875,-31.73828125,0.0
1699110192.106857,-136.23046875,-84.9609375,-412.59765625,-43.45703125,0.0
1699110192.1107574,-14.16015625,-0.9765625,-60.05859375,-23.92578125,0.0
1699110192.1146576,110.83984375,37.59765625,319.3359375,0.48828125,0.0
1699110192.118558,-39.0625,-54.19921875,25.87890625,-17.08984375,0.0
1699110192.1224582,-139.16015625,-88.37890625,-326.66015625,-34.66796875,0.0
1699110192.1263585,-62.98828125,-69.82421875,-381.8359375,-30.2734375,0.0
1699110192.1302588,111.328125,8.7890625,109.86328125,0.9765625,0.0
1699110192.134159,34.66796875,-50.78125,-42.48046875,3.41796875,0.0
1699110192.1380594,-124.0234375,-56.640625,-375.0,-34.66796875,0.0
1699110192.14196,-104.4921875,-0.9765625,-209.47265625,-38.0859375,0.0
1699110192.1458602,68.84765625,18.5546875,82.03125,-4.39453125,0.0
1699110192.1497605,64.94140625,5.859375,181.15234375,-8.7890625,0.0
1699110192.1537166,-114.2578125,-35.64453125,-75.1953125,-37.59765625,0.0
1699110192.157617,-116.2109375,-54.6875,-331.0546875,-35.64453125,0.0
1699110192.1615174,41.015625,-5.859375,-97.65625,-15.13671875,0.0
1699110192.1654177,105.95703125,57.12890625,304.19921875,-8.7890625,0.0
1699110192.169318,-79.1015625,-29.78515625,15.625,-32.71484375,0.0
1699110192.1732183,-121.09375,-93.26171875,-386.23046875,-42.96875,0.0
1699110192.1771185,0.48828125,-84.47265625,-452.1484375,-21.484375,0.0
1699110192.1810188,118.1640625,18.5546875,58.10546875,0.0,0.0
1699110192.1849194,-25.390625,32.2265625,157.71484375,-33.69140625,0.0
1699110192.1888196,-125.9765625,-64.94140625,-308.59375,-54.6875,0.0
1699110192.19272,-64.94140625,-49.8046875,-331.0546875,-43.45703125,0.0
1699110192.1966202,92.28515625,66.89453125,229.00390625,-18.5546875,0.0
1699110192.2005663,10.7421875,23.92578125,267.08984375,-30.76171875,0.0
1699110192.2044668,-136.71875,-113.28125,-304.6875,-63.96484375,0.0
1699110192.208367,-114.74609375,-102.05078125,-445.3125,-62.01171875,0.0
1699110192.2122674,34.1796875,48.828125,135.7421875,-33.203125,0.0
1699110192.2161677,38.0859375,40.52734375,279.296875,-26.3671875,0.0
1699110192.220068,-137.6953125,-132.8125,-335.44921875,-52.734375,0.0
1699110192.2239683,-145.99609375,-173.33984375,-625.0,-61.5234375,0.0
1699110192.2278688,-9.765625,-1.953125,-119.140625,-49.31640625,0.0
1699110192.231769,72.265625,90.33203125,363.76953125,-34.66796875,0.0
1699110192.2356694,-94.23828125,-66.40625,-77.63671875,-58.59375,0.0
1699110192.2395697,-169.921875,-124.51171875,-477.5390625,-76.171875,0.0
1699110192.24347,-67.87109375,-20.5078125,-162.59765625,-56.15234375,0.0
1699110192.2475166,86.9140625,68.359375,372.55859375,-25.390625,0.0
1699110192.2514172,-33.203125,-44.921875,58.10546875,-47.8515625,0.0
1699110192.2553174,-158.69140625,-113.76953125,-408.69140625,-73.73046875,0.0
1699110192.2592177,-106.4453125,-56.640625,-309.08203125,-59.08203125,0.0
1699110192.263118,72.75390625,9.27734375,182.6171875,-25.87890625,0.0
1699110192.2670186,21.484375,-53.7109375,50.29296875,-21.484375,0.0
1699110192.2709188,-137.20703125,-111.328125,-418.9453125,-48.828125,0.0
1699110192.2748191,-121.09375,-38.57421875,-361.81640625,-55.17578125,0.0
1699110192.2787194,43.45703125,29.78515625,64.94140625,-24.4140625,0.0
1699110192.2826197,76.66015625,-29.296875,68.359375,-15.625,0.0
1699110192.2865202,-90.33203125,-68.359375,-320.80078125,-41.015625,0.0
1699110192.2904205,-111.81640625,-35.15625,-335.9375,-48.33984375,0.0
1699110192.2944152,15.625,-7.32421875,-89.84375,-27.83203125,0.0
1699110192.2983158,105.95703125,27.83203125,238.76953125,-8.30078125,0.0
1699110192.302216,-53.7109375,-34.1796875,17.578125,-35.64453125,0.0
1699110192.3061163,-129.8828125,-70.80078125,-306.15234375,-49.8046875,0.0
1699110192.3100166,-42.96875,-54.19921875,-309.08203125,-30.2734375,0.0
1699110192.3139172,102.5390625,-0.9765625,141.11328125,-2.9296875,0.0
1699110192.3178174,-19.53125,-44.43359375,3.41796875,-30.2734375,0.0
1699110192.3217177,-153.3203125,-102.05078125,-422.8515625,-55.6640625,0.0
1699110192.325618,-99.12109375,-101.07421875,-530.2734375,-41.50390625,0.0
1699110192.3295186,68.359375,10.7421875,-63.96484375,-19.04296875,0.0
1699110192.3334188,17.578125,45.8984375,239.74609375,-29.78515625,0.0
1699110192.3373191,-143.5546875,-70.80078125,-244.140625,-58.59375,0.0
1699110192.3413033,-133.7890625,-138.671875,-580.078125,-52.24609375,0.0
1699110192.3452036,14.6484375,-38.57421875,-191.40625,-21.97265625,0.0
1699110192.349104,51.7578125,92.28515625,308.59375,-20.01953125,0.0
1699110192.3530045,-123.046875,-27.34375,-5.859375,-53.22265625,0.0
1699110192.3569047,-159.66796875,-99.12109375,-380.37109375,-63.96484375,0.0
1699110192.360805,-25.87890625,-33.69140625,-237.79296875,-31.73828125,0.0
1699110192.3647056,90.33203125,51.26953125,280.76171875,-10.7421875,0.0
1699110192.3686059,-78.125,-11.71875,77.63671875,-45.8984375,0.0
1699110192.3725061,-171.38671875,-150.390625,-532.71484375,-59.08203125,0.0
1699110192.3764064,-84.9609375,-86.9140625,-425.78125,-45.8984375,0.0
1699110192.380307,72.265625,86.9140625,290.52734375,-18.5546875,0.0
1699110192.3842072,-25.390625,6.8359375,167.48046875,-32.2265625,0.0
1699110192.3881834,-156.25,-90.33203125,-335.44921875,-53.7109375,0.0
1699110192.3920836,-118.65234375,-44.921875,-320.80078125,-42.48046875,0.0
1699110192.3959842,54.19921875,45.8984375,211.9140625,-19.53125,0.0
1699110192.3998845,33.69140625,-0.48828125,216.796875,-9.765625,0.0
1699110192.4037848,-142.578125,-114.2578125,-342.7734375,-44.43359375,0.0
1699110192.4076853,-135.25390625,-104.98046875,-525.390625,-57.6171875,0.0
1699110192.4115856,25.87890625,-14.16015625,-86.9140625,-23.92578125,0.0
1699110192.4154859,79.58984375,-11.23046875,128.41796875,-16.11328125,0.0
1699110192.4193864,-91.30859375,-112.79296875,-356.93359375,-45.41015625,0.0
1699110192.4232867,-135.7421875,-52.24609375,-401.85546875,-56.640625,0.0
1699110192.427187,-20.99609375,20.99609375,-25.390625,-34.1796875,0.0
1699110192.4310875,117.1875,37.109375,281.73828125,0.48828125,0.0
1699110192.4350657,-24.90234375,-65.4296875,-89.84375,-23.92578125,0.0
1699110192.438966,-131.34765625,-88.37890625,-390.13671875,-49.31640625,0.0
1699110192.4428663,-48.828125,-23.4375,-231.4453125,-27.83203125,0.0
1699110192.4467669,120.60546875,37.59765625,229.4921875,6.8359375,0.0
1699110192.4506671,30.2734375,-3.41796875,141.6015625,-4.8828125,0.0
1699110192.4545674,-119.62890625,-96.6796875,-380.37109375,-35.15625,0.0
1699110192.458468,-97.16796875,-73.2421875,-463.37890625,-41.50390625,0.0
1699110192.4623682,77.1484375,-24.4140625,-140.625,-5.37109375,0.0
1699110192.4662685,61.03515625,4.39453125,113.76953125,-3.90625,0.0
1699110192.470169,-128.90625,-6.8359375,-87.40234375,-45.8984375,0.0
1699110192.4740694,-131.8359375,-66.89453125,-431.640625,-46.38671875,0.0
1699110192.4779696,20.5078125,1.953125,-110.83984375,-17.08984375,0.0
1699110192.4819386,84.9609375,65.91796875,324.21875,-6.34765625,0.0
1699110192.4858391,-93.26171875,-35.15625,-7.8125,-30.76171875,0.0
1699110192.4897394,-138.18359375,-112.3046875,-429.19921875,-40.52734375,0.0
1699110192.4936397,-29.78515625,-52.734375,-321.77734375,-18.06640625,0.0
1699110192.4975402,91.796875,67.3828125,250.48828125,1.46484375,0.0
1699110192.5014405,-50.29296875,-28.3203125,5.37109375,-21.484375,0.0
1699110192.5053408,-157.2265625,-131.8359375,-542.48046875,-40.52734375,0.0
1699110192.5092413,-84.9609375,-102.5390625,-522.4609375,-37.109375,0.0
1699110192.5131416,92.7734375,86.9140625,169.921875,-10.7421875,0.0
1699110192.5170422,25.87890625,66.40625,271.484375,-22.94921875,0.0
1699110192.5209424,-125.48828125,-98.6328125,-305.6640625,-49.8046875,0.0
1699110192.5248427,-86.9140625,-70.80078125,-427.734375,-45.8984375,0.0
1699110192.528802,83.0078125,61.5234375,112.79296875,-23.92578125,0.0
1699110192.5327024,86.9140625,53.7109375,289.0625,-7.32421875,0.0
1699110192.5366027,-86.9140625,-69.3359375,-202.1484375,-23.92578125,0.0
1699110192.5405033,-106.93359375,-68.359375,-427.24609375,-32.2265625,0.0
1699110192.5444036,31.73828125,22.4609375,-29.296875,-14.16015625,0.0
1699110192.5483038,115.234375,32.71484375,296.38671875,3.41796875,0.0
1699110192.5522044,-62.01171875,-139.16015625,-292.96875,-28.80859375,0.0
1699110192.5561047,-131.8359375,-149.4140625,-605.95703125,-41.9921875,0.0
1699110192.5600052,-28.80859375,22.94921875,-138.671875,-19.53125,0.0
1699110192.5639055,115.72265625,59.08203125,303.7109375,-10.25390625,0.0
1699110192.567806,-24.4140625,-51.26953125,12.20703125,-39.55078125,0.0
1699110192.5717063,-150.390625,-90.33203125,-360.83984375,-54.6875,0.0
1699110192.5756552,-91.30859375,-38.0859375,-272.4609375,-40.52734375,0.0
1699110192.5795557,79.1015625,22.4609375,156.25,-18.5546875,0.0
1699110192.583456,23.92578125,-30.2734375,105.46875,-25.87890625,0.0
1699110192.5873566,-143.06640625,-75.68359375,-257.32421875,-41.015625,0.0
1699110192.5912569,-126.953125,-75.68359375,-401.3671875,-39.55078125,0.0
1699110192.5951574,39.0625,-41.50390625,-55.17578125,-17.578125,0.0
1699110192.5990577,57.6171875,-68.84765625,14.16015625,-3.41796875,0.0
1699110192.602958,-128.90625,-92.28515625,-373.046875,-44.43359375,0.0
1699110192.6068585,-153.80859375,-67.3828125,-413.0859375,-62.01171875,0.0
1699110192.6107588,-18.5546875,-43.9453125,-218.26171875,-34.1796875,0.0
1699110192.6146593,67.3828125,23.4375,224.609375,-21.484375,0.0
1699110192.6185596,-95.703125,-34.66796875,70.3125,-53.22265625,0.0
1699110192.6224995,-150.87890625,-89.84375,-266.11328125,-62.5,0.0
1699110192.6263998,-41.9921875,-62.98828125,-264.16015625,-38.0859375,0.0
1699110192.6303003,110.83984375,36.62109375,211.42578125,-10.7421875,0.0
1699110192.6342006,-8.7890625,-7.8125,213.8671875,-22.94921875,0.0
1699110192.638101,-133.30078125,-96.6796875,-248.53515625,-47.8515625,0.0
1699110192.6420014,-80.56640625,-107.421875,-455.078125,-48.828125,0.0
1699110192.645902,97.65625,17.578125,53.7109375,-14.6484375,0.0
1699110192.6498022,58.59375,55.17578125,295.41015625,-16.11328125,0.0
1699110192.6537027,-107.421875,-62.5,-213.37890625,-43.9453125,0.0
1699110192.657603,-91.30859375,-119.62890625,-526.85546875,-39.55078125,0.0
1699110192.6615033,70.3125,16.6015625,-23.4375,-13.671875,0.0
1699110192.6654038,106.93359375,68.359375,274.90234375,-9.765625,0.0
1699110192.6693873,-67.87109375,-77.1484375,-271.484375,-27.83203125,0.0
1699110192.6732876,-107.91015625,-74.21875,-471.19140625,-38.0859375,0.0
1699110192.6771882,17.08984375,29.78515625,-47.36328125,-23.4375,0.0
1699110192.6810884,131.8359375,82.51953125,372.55859375,10.25390625,0.0
1699110192.684989,-29.296875,-55.17578125,-69.82421875,-13.18359375,0.0
1699110192.6888893,-111.81640625,-130.37109375,-536.1328125,-33.69140625,0.0
1699110192.6927898,-26.85546875,-44.921875,-354.98046875,-19.53125,0.0
1699110192.69669,132.32421875,80.078125,252.44140625,6.8359375,0.0
1699110192.7005904,26.3671875,-14.6484375,50.78125,-13.671875,0.0
1699110192.704491,-117.67578125,-130.37109375,-512.20703125,-38.57421875,0.0
1699110192.7083912,-82.51953125,-18.5546875,-284.66796875,-40.0390625,0.0
1699110192.7122917,88.37890625,70.80078125,229.00390625,-22.4609375,0.0
1699110192.7162795,51.7578125,1.46484375,173.33984375,-15.13671875,0.0
1699110192.7201798,-131.34765625,-91.30859375,-282.71484375,-41.50390625,0.0
1699110192.7240803,-127.9296875,-82.51953125,-421.38671875,-51.7578125,0.0
1699110192.7279806,25.390625,10.7421875,-3.90625,-18.06640625,0.0
1699110192.7318811,62.98828125,22.94921875,302.24609375,-12.20703125,0.0
1699110192.7357814,-122.0703125,-104.98046875,-235.83984375,-49.8046875,0.0
1699110192.739682,-165.0390625,-99.609375,-474.12109375,-59.5703125,0.0
1699110192.7435822,-43.9453125,0.9765625,-33.203125,-45.41015625,0.0
1699110192.7474828,78.125,-30.2734375,164.0625,-13.671875,0.0
1699110192.751383,-85.44921875,-99.609375,-207.03125,-45.41015625,0.0
1699110192.7552836,-172.8515625,-43.9453125,-278.80859375,-82.03125,0.0
1699110192.759184,-71.2890625,-52.734375,-308.10546875,-56.15234375,0.0
1699110192.7631633,89.84375,25.390625,134.27734375,-27.34375,0.0
1699110192.7670636,-6.8359375,19.04296875,253.41796875,-43.9453125,0.0
1699110192.7709641,-139.16015625,-69.3359375,-143.06640625,-62.01171875,0.0
1699110192.7748644,-102.05078125,-77.63671875,-338.8671875,-55.6640625,0.0
1699110192.778765,63.4765625,7.8125,41.50390625,-26.3671875,0.0
1699110192.7826653,60.546875,9.27734375,212.40234375,-6.34765625,0.0
1699110192.7865658,-110.83984375,-90.8203125,-275.87890625,-36.62109375,0.0
1699110192.790466,-121.58203125,-119.62890625,-555.6640625,-46.875,0.0
1699110192.7943666,35.15625,-47.8515625,-273.4375,-4.39453125,0.0
1699110192.798267,111.81640625,86.9140625,274.90234375,9.765625,0.0
1699110192.8021674,-70.3125,0.48828125,36.62109375,-28.3203125,0.0
1699110192.806068,-123.046875,-92.28515625,-389.16015625,-30.2734375,0.0
1699110192.8100903,-4.8828125,-6.34765625,-125.9765625,-8.7890625,0.0
1699110192.8139908,125.48828125,96.19140625,382.32421875,3.90625,0.0
1699110192.8178911,-7.32421875,-15.13671875,100.09765625,-7.32421875,0.0
1699110192.8217916,-112.3046875,-106.4453125,-335.44921875,-26.85546875,0.0
1699110192.825692,-44.921875,-48.33984375,-294.921875,-25.87890625,0.0
1699110192.8295925,122.0703125,37.109375,194.82421875,8.7890625,0.0
1699110192.833493,44.921875,-1.46484375,101.5625,3.41796875,0.0
1699110192.8373933,-113.28125,-148.92578125,-536.62109375,-25.390625,0.0
1699110192.8412938,-100.09765625,-107.91015625,-552.734375,-28.80859375,0.0
1699110192.845194,67.87109375,97.65625,173.828125,-4.39453125,0.0
1699110192.8490946,78.61328125,47.8515625,247.55859375,5.859375,0.0
1699110192.8529952,-106.4453125,-89.35546875,-290.52734375,-21.97265625,0.0
1699110192.8569531,-130.859375,-75.68359375,-440.91796875,-30.76171875,0.0
1699110192.8608537,15.625,11.23046875,-15.13671875,-3.90625,0.0
1699110192.8647542,102.05078125,23.92578125,288.0859375,20.99609375,0.0
1699110192.8686545,-72.75390625,-78.125,-159.1796875,-12.6953125,0.0
1699110192.872555,-144.04296875,-94.23828125,-429.19921875,-37.109375,0.0
1699110192.8764553,-43.45703125,-60.05859375,-285.15625,-19.53125,0.0
1699110192.8803558,98.6328125,-13.18359375,139.6484375,3.41796875,0.0
1699110192.8842564,-37.59765625,-74.21875,-98.6328125,-20.99609375,0.0
1699110192.8881567,-153.80859375,-81.0546875,-394.04296875,-48.33984375,0.0
1699110192.8920572,-88.37890625,-32.2265625,-254.39453125,-41.50390625,0.0
1699110192.8959575,83.49609375,-25.87890625,70.3125,-9.765625,0.0
1699110192.899858,15.13671875,-73.2421875,-10.25390625,-10.7421875,0.0
1699110192.9038596,-148.4375,-47.8515625,-249.51171875,-46.38671875,0.0
1699110192.90776,-117.1875,-47.36328125,-330.56640625,-45.8984375,0.0
1699110192.9116604,57.12890625,-2.44140625,9.27734375,-13.671875,0.0
1699110192.915561,74.70703125,30.2734375,275.87890625,-6.34765625,0.0
1699110192.9194613,-109.86328125,-67.87109375,-121.09375,-36.62109375,0.0
1699110192.9233618,-136.71875,-120.60546875,-447.265625,-48.828125,0.0
1699110192.927262,-1.953125,-102.5390625,-396.97265625,-27.34375,0.0
1699110192.9311626,97.65625,-23.4375,37.59765625,-8.30078125,0.0
1699110192.9350631,-62.01171875,-11.23046875,106.4453125,-26.3671875,0.0
1699110192.9389634,-130.37109375,-81.54296875,-311.03515625,-37.59765625,0.0
1699110192.942864,-36.62109375,-49.31640625,-252.44140625,-27.34375,0.0
1699110192.9467645,122.0703125,67.87109375,299.8046875,2.44140625,0.0
1699110192.9507158,7.32421875,-2.9296875,152.83203125,-13.18359375,0.0
1699110192.9546163,-122.0703125,-118.65234375,-382.32421875,-40.0390625,0.0
1699110192.9585166,-61.03515625,-83.49609375,-383.30078125,-31.73828125,0.0
1699110192.9624171,114.2578125,52.24609375,231.4453125,0.9765625,0.0
1699110192.9663177,60.546875,20.99609375,255.859375,-2.44140625,0.0
1699110192.970218,-105.46875,-132.32421875,-352.05078125,-30.2734375,0.0
1699110192.9741185,-93.26171875,-122.55859375,-533.203125,-30.76171875,0.0
1699110192.978019,61.03515625,4.39453125,-65.4296875,-6.34765625,0.0
1699110192.9819193,90.33203125,58.59375,316.40625,-2.9296875,0.0
1699110192.9858198,-86.9140625,-85.44921875,-207.51953125,-35.15625,0.0
1699110192.9897203,-118.65234375,-143.5546875,-648.92578125,-45.8984375,0.0
1699110192.9936206,7.8125,42.96875,-42.96875,-26.85546875,0.0
1699110192.9975626,120.1171875,101.07421875,390.13671875,-16.11328125,0.0
1699110193.0014632,-40.0390625,-47.8515625,-55.6640625,-33.203125,0.0
1699110193.0053637,-127.44140625,-86.9140625,-420.41015625,-44.43359375,0.0
1699110193.009264,-38.0859375,-25.87890625,-276.85546875,-42.48046875,0.0
1699110193.0131645,115.234375,37.109375,212.40234375,-16.11328125,0.0
1699110193.017065,-0.48828125,-82.51953125,-107.91015625,-33.203125,0.0
1699110193.0209653,-122.0703125,-119.62890625,-531.25,-53.22265625,0.0
1699110193.0248659,-76.66015625,-7.8125,-320.3125,-45.8984375,0.0
1699110193.0287664,83.984375,40.52734375,130.37109375,-12.6953125,0.0
1699110193.032667,52.734375,-4.39453125,191.89453125,-10.7421875,0.0
1699110193.0365672,-122.55859375,-74.21875,-223.14453125,-46.875,0.0
1699110193.0404677,-115.234375,-54.19921875,-347.65625,-47.8515625,0.0
1699110193.0444539,42.96875,-3.41796875,-31.25,-19.04296875,0.0
1699110193.0483541,86.42578125,2.9296875,228.02734375,-9.27734375,0.0
1699110193.0522547,-95.21484375,-57.12890625,-52.734375,-33.203125,0.0
1699110193.0561552,-133.7890625,-76.171875,-350.5859375,-41.50390625,0.0
1699110193.0600557,-14.6484375,-54.19921875,-214.35546875,-30.76171875,0.0
1699110193.063956,104.98046875,-31.73828125,167.48046875,-13.18359375,0.0
1699110193.0678566,-46.38671875,-74.21875,-100.5859375,-32.71484375,0.0
1699110193.071757,-139.16015625,-98.6328125,-432.6171875,-45.8984375,0.0
1699110193.0756574,-59.08203125,-90.8203125,-433.59375,-29.296875,0.0
1699110193.079558,103.02734375,-0.48828125,10.25390625,0.48828125,0.0
1699110193.0834584,1.46484375,23.4375,215.8203125,-19.04296875,0.0
1699110193.087359,-146.97265625,-64.94140625,-212.40234375,-45.8984375,0.0
1699110193.0913355,-103.515625,-86.42578125,-380.37109375,-42.96875,0.0
1699110193.095236,62.5,16.6015625,81.54296875,-20.99609375,0.0
1699110193.0991366,41.9921875,37.109375,287.59765625,-22.4609375,0.0
1699110193.103037,-128.41796875,-72.75390625,-137.20703125,-46.875,0.0
1699110193.1069374,-132.32421875,-102.5390625,-417.96875,-44.921875,0.0
1699110193.110838,12.20703125,-32.71484375,-104.98046875,-24.4140625,0.0
1699110193.1147385,81.0546875,17.578125,284.1796875,-14.6484375,0.0
1699110193.118639,-83.984375,-40.52734375,-13.671875,-42.48046875,0.0
1699110193.1225393,-137.6953125,-162.109375,-549.8046875,-55.17578125,0.0
1699110193.1264398,-29.78515625,-93.26171875,-399.4140625,-42.48046875,0.0
1699110193.1303403,106.93359375,102.5390625,316.40625,-24.4140625,0.0
1699110193.1342409,-25.87890625,-9.27734375,67.3828125,-32.71484375,0.0
1699110193.1382208,-126.953125,-95.21484375,-414.0625,-40.52734375,0.0
1699110193.1421213,-50.29296875,-9.27734375,-285.64453125,-31.73828125,0.0
1699110193.1460218,118.1640625,83.49609375,249.51171875,-6.8359375,0.0
1699110193.1499221,34.66796875,-6.8359375,176.7578125,-20.99609375,0.0
1699110193.1538227,-117.1875,-113.28125,-376.46484375,-38.57421875,0.0
1699110193.1577232,-95.703125,-85.44921875,-495.60546875,-31.73828125,0.0
1699110193.1616237,71.2890625,18.5546875,7.32421875,-4.39453125,0.0
1699110193.165524,78.125,-1.953125,95.21484375,5.37109375,0.0
1699110193.1694245,-93.75,-108.3984375,-427.734375,-30.2734375,0.0
1699110193.173325,-108.88671875,-27.34375,-426.7578125,-40.0390625,0.0
1699110193.1772256,34.1796875,69.3359375,30.2734375,-8.30078125,0.0
1699110193.181126,108.88671875,34.66796875,199.70703125,3.90625,0.0
1699110193.1850963,-69.3359375,-64.94140625,-258.7890625,-31.73828125,0.0
1699110193.1889968,-126.46484375,-39.0625,-386.23046875,-41.50390625,0.0
1699110193.192897,-14.6484375,7.32421875,-150.390625,-22.4609375,0.0
1699110193.1967976,125.9765625,48.33984375,265.625,4.39453125,0.0
1699110193.2006981,-14.16015625,-14.16015625,62.01171875,-7.32421875,0.0
1699110193.2045987,-128.41796875,-88.37890625,-388.18359375,-24.4140625,0.0
1699110193.2084992,-59.08203125,-52.734375,-412.109375,-19.04296875,0.0
1699110193.2123995,111.328125,-0.48828125,-18.5546875,1.953125,0.0
1699110193.2163,41.9921875,-17.578125,77.63671875,1.953125,0.0
1699110193.2202005,-123.046875,-23.92578125,-166.9921875,-20.99609375,0.0
1699110193.224101,-106.93359375,-47.8515625,-377.9296875,-29.78515625,0.0
1699110193.2280016,56.640625,7.32421875,-72.75390625,-2.44140625,0.0
1699110193.2319617,67.3828125,44.43359375,225.09765625,4.8828125,0.0
1699110193.2358623,-121.58203125,-46.875,-125.48828125,-34.1796875,0.0
1699110193.2397628,-139.6484375,-109.86328125,-454.1015625,-47.8515625,0.0
1699110193.2436633,1.46484375,-31.25,-138.671875,-26.85546875,0.0
1699110193.2475636,82.03125,36.1328125,293.45703125,-10.25390625,0.0
1699110193.2514641,-89.84375,-89.35546875,-167.48046875,-33.69140625,0.0
1699110193.2553647,-164.55078125,-157.2265625,-575.1953125,-49.8046875,0.0
1699110193.2592652,-66.40625,-102.5390625,-455.56640625,-34.1796875,0.0
1699110193.2631657,86.42578125,78.61328125,220.21484375,-12.6953125,0.0
1699110193.2670662,-38.57421875,20.99609375,229.98046875,-38.0859375,0.0
1699110193.2709665,-157.2265625,-113.76953125,-333.0078125,-55.6640625,0.0
1699110193.274867,-99.12109375,-80.078125,-372.0703125,-41.9921875,0.0
1699110193.2788193,67.3828125,41.9921875,220.703125,-22.94921875,0.0
1699110193.2827199,18.5546875,8.7890625,240.234375,-22.4609375,0.0
1699110193.2866204,-135.7421875,-115.72265625,-265.13671875,-42.96875,0.0
1699110193.2905207,-123.53515625,-86.42578125,-397.4609375,-57.12890625,0.0
1699110193.2944212,37.59765625,7.32421875,28.80859375,-23.92578125,0.0
1699110193.2983217,69.3359375,-1.46484375,224.609375,-10.25390625,0.0
1699110193.3022223,-107.421875,-150.87890625,-412.59765625,-43.9453125,0.0
1699110193.3061228,-132.32421875,-129.39453125,-602.05078125,-45.8984375,0.0
1699110193.3100233,-3.41796875,55.17578125,10.25390625,-26.3671875,0.0
1699110193.3139238,99.609375,54.6875,309.5703125,-7.8125,0.0
1699110193.3178241,-54.19921875,-62.98828125,-73.73046875,-33.69140625,0.0
1699110193.3217247,-135.25390625,-77.1484375,-372.55859375,-53.7109375,0.0
1699110193.3256795,-45.8984375,-14.16015625,-202.1484375,-30.2734375,0.0
1699110193.32958,114.74609375,39.0625,245.60546875,1.953125,0.0
1699110193.3334806,2.44140625,-42.48046875,-4.39453125,-20.01953125,0.0
1699110193.3373811,-129.39453125,-76.66015625,-377.9296875,-37.59765625,0.0
1699110193.3412817,-74.21875,-38.0859375,-354.4921875,-27.83203125,0.0
1699110193.3451822,93.26171875,2.44140625,57.6171875,-8.7890625,0.0
1699110193.3490827,50.29296875,-60.05859375,-15.13671875,-11.23046875,0.0
1699110193.3529832,-118.1640625,-70.80078125,-416.015625,-46.38671875,0.0
1699110193.3568835,-117.67578125,-37.59765625,-421.875,-53.7109375,0.0
1699110193.360784,38.0859375,9.765625,-120.60546875,-21.484375,0.0
1699110193.3646846,81.54296875,62.01171875,242.1875,-12.20703125,0.0
1699110193.368585,-101.07421875,-14.16015625,-4.8828125,-47.8515625,0.0
1699110193.3725836,-138.671875,-67.87109375,-322.75390625,-51.26953125,0.0
1699110193.3764842,-14.6484375,-24.4140625,-208.0078125,-19.04296875,0.0
1699110193.3803847,104.4921875,51.7578125,254.8828125,-0.48828125,0.0
1699110193.3842852,-44.43359375,-16.11328125,129.39453125,-22.4609375,0.0
1699110193.3881857,-132.32421875,-84.47265625,-291.9921875,-37.109375,0.0
1699110193.3920863,-50.78125,-94.23828125,-387.20703125,-17.578125,0.0
1699110193.3959866,108.3984375,3.90625,86.42578125,21.484375,0.0
1699110193.399887,0.9765625,22.4609375,211.9140625,0.48828125,0.0
1699110193.4037876,-141.6015625,-66.40625,-223.14453125,-25.87890625,0.0
1699110193.4076881,-90.8203125,-91.796875,-446.2890625,-17.578125,0.0
1699110193.4115887,77.63671875,39.0625,102.05078125,8.30078125,0.0
1699110193.4154892,53.7109375,41.9921875,272.94921875,8.7890625,0.0
1699110193.419491,-117.67578125,-81.0546875,-222.16796875,-16.6015625,0.0
1699110193.4233916,-116.69921875,-83.984375,-438.96484375,-24.90234375,0.0
1699110193.427292,37.109375,24.90234375,-10.25390625,-2.9296875,0.0
1699110193.4311926,88.8671875,57.12890625,348.14453125,8.30078125,0.0
1699110193.4350932,-82.51953125,-83.984375,-109.86328125,-16.6015625,0.0
1699110193.4389937,-122.0703125,-154.296875,-547.8515625,-36.1328125,0.0
1699110193.4428942,-1.953125,-39.0625,-275.87890625,-19.53125,0.0
1699110193.4467947,124.51171875,52.734375,254.8828125,5.859375,0.0
1699110193.4506953,-31.25,-73.2421875,-121.09375,-36.1328125,0.0
1699110193.4545956,-121.58203125,-124.0234375,-587.890625,-50.29296875,0.0
1699110193.458496,-54.19921875,2.9296875,-246.58203125,-35.64453125,0.0
1699110193.4623966,103.02734375,76.66015625,288.0859375,-12.20703125,0.0
1699110193.4663758,25.390625,-13.671875,80.56640625,-24.4140625,0.0
1699110193.4702764,-131.34765625,-113.28125,-433.10546875,-57.12890625,0.0
1699110193.474177,-102.5390625,-68.359375,-397.4609375,-47.36328125,0.0
1699110193.4780774,66.40625,49.8046875,118.1640625,-17.578125,0.0
1699110193.481978,60.05859375,15.13671875,219.7265625,-24.90234375,0.0
1699110193.4858785,-120.60546875,-117.1875,-333.984375,-50.78125,0.0
1699110193.489779,-133.7890625,-89.35546875,-490.234375,-54.19921875,0.0
1699110193.4936795,10.7421875,31.73828125,11.23046875,-36.1328125,0.0
1699110193.49758,87.890625,-30.2734375,125.48828125,-14.16015625,0.0
1699110193.5014806,-81.54296875,-96.19140625,-329.1015625,-35.64453125,0.0
1699110193.505381,-145.01953125,-33.69140625,-385.25390625,-60.546875,0.0
1699110193.5092816,-34.66796875,-22.4609375,-224.609375,-52.734375,0.0
1699110193.5132518,113.76953125,46.875,230.95703125,-13.671875,0.0
1699110193.5171523,-30.2734375,0.9765625,112.79296875,-30.2734375,0.0
1699110193.5210528,-145.99609375,-59.08203125,-260.25390625,-56.15234375,0.0
1699110193.5249534,-71.77734375,-63.4765625,-343.26171875,-39.55078125,0.0
1699110193.528854,98.6328125,-3.90625,70.3125,-5.859375,0.0
1699110193.5327544,30.76171875,-21.97265625,77.63671875,-11.23046875,0.0
1699110193.536655,-126.953125,-108.3984375,-395.99609375,-38.57421875,0.0
1699110193.5405555,-106.93359375,-115.72265625,-515.625,-47.8515625,0.0
1699110193.544456,56.15234375,-37.59765625,-159.66796875,-22.4609375,0.0
1699110193.5483565,63.96484375,50.29296875,218.75,-13.671875,0.0
1699110193.552257,-104.98046875,-25.390625,-104.00390625,-39.55078125,0.0
1699110193.5561576,-115.72265625,-89.84375,-437.5,-34.66796875,0.0
1699110193.5601306,23.4375,-9.27734375,-109.375,-14.6484375,0.0
1699110193.5640311,121.09375,61.03515625,343.75,9.27734375,0.0
1699110193.5679317,-40.0390625,-48.33984375,-20.5078125,-12.20703125,0.0
1699110193.5718322,-118.1640625,-112.3046875,-401.85546875,-26.85546875,0.0
1699110193.5757327,-24.90234375,-40.0390625,-206.54296875,-19.53125,0.0
1699110193.5796332,134.27734375,30.76171875,255.859375,6.34765625,0.0
1699110193.5835338,4.39453125,-49.31640625,-13.671875,-10.25390625,0.0
1699110193.5874343,-124.0234375,-171.38671875,-605.46875,-28.3203125,0.0
1699110193.5913348,-62.5,-90.8203125,-495.1171875,-15.13671875,0.0
1699110193.5952353,108.88671875,114.2578125,250.9765625,0.9765625,0.0
1699110193.5991359,47.8515625,25.87890625,188.4765625,0.9765625,0.0
1699110193.6030364,-110.83984375,-96.6796875,-331.54296875,-18.06640625,0.0
1699110193.6070004,-93.75,-48.828125,-372.0703125,-20.01953125,0.0
1699110193.610901,62.01171875,54.6875,104.00390625,-3.90625,0.0
1699110193.6148016,85.9375,22.4609375,257.8125,-2.44140625,0.0
1699110193.6187022,-96.6796875,-94.7265625,-235.3515625,-35.15625,0.0
1699110193.6226027,-124.51171875,-76.171875,-446.2890625,-46.875,0.0
1699110193.6265032,9.765625,-9.765625,-121.09375,-20.5078125,0.0
1699110193.6304038,115.234375,8.30078125,197.75390625,-6.8359375,0.0
1699110193.6343043,-56.15234375,-93.26171875,-250.48828125,-33.203125,0.0
1699110193.6382048,-150.390625,-52.24609375,-385.25390625,-65.4296875,0.0
1699110193.6421053,-46.38671875,-0.48828125,-207.51953125,-54.6875,0.0
1699110193.6460059,113.76953125,27.83203125,141.6015625,-19.53125,0.0
1699110193.6499064,-15.625,-12.20703125,123.53515625,-41.015625,0.0
1699110193.6538603,-142.578125,-57.12890625,-216.796875,-64.94140625,0.0
1699110193.6577609,-85.9375,-49.8046875,-327.63671875,-57.6171875,0.0
1699110193.6616614,74.21875,-1.953125,80.078125,-28.3203125,0.0
1699110193.665562,28.80859375,3.90625,230.95703125,-33.69140625,0.0
1699110193.6694624,-133.7890625,-82.03125,-212.890625,-58.59375,0.0
1699110193.673363,-128.90625,-121.58203125,-468.75,-67.3828125,0.0
1699110193.6772635,24.4140625,-91.30859375,-334.9609375,-41.9921875,0.0
1699110193.681164,65.4296875,-26.85546875,-8.30078125,-26.3671875,0.0
1699110193.6850646,-119.140625,-11.23046875,-28.80859375,-59.5703125,0.0
1699110193.688965,-146.484375,-74.70703125,-401.3671875,-62.98828125,0.0
1699110193.6928658,-10.25390625,-41.9921875,-296.875,-41.9921875,0.0
1699110193.6967664,98.14453125,53.22265625,264.6484375,-17.578125,0.0
1699110193.7007108,-59.5703125,-44.43359375,-19.04296875,-32.2265625,0.0
1699110193.7046113,-140.13671875,-128.41796875,-534.66796875,-48.33984375,0.0
1699110193.7085118,-57.12890625,-58.10546875,-308.10546875,-29.296875,0.0
1699110193.7124124,99.609375,64.453125,289.0625,8.7890625,0.0
1699110193.716313,-4.8828125,-14.6484375,135.7421875,-17.08984375,0.0
1699110193.7202134,-138.671875,-145.01953125,-442.87109375,-50.29296875,0.0
1699110193.724114,-91.30859375,-145.01953125,-563.96484375,-38.0859375,0.0
1699110193.7280147,80.56640625,28.3203125,41.9921875,-10.25390625,0.0
1699110193.7319152,62.01171875,77.1484375,303.22265625,-8.30078125,0.0
1699110193.7358158,-114.2578125,-82.51953125,-278.80859375,-29.78515625,0.0
1699110193.7397163,-121.09375,-90.33203125,-526.3671875,-35.15625,0.0
1699110193.7436168,32.71484375,32.2265625,-2.44140625,-18.06640625,0.0
1699110193.747567,100.5859375,45.8984375,303.22265625,0.0,0.0
1699110193.7514675,-81.54296875,-84.47265625,-145.99609375,-27.34375,0.0
1699110193.755368,-136.23046875,-113.76953125,-455.078125,-44.43359375,0.0
1699110193.7592685,-3.90625,-26.85546875,-227.05078125,-19.53125,0.0
1699110193.763169,113.28125,44.921875,231.93359375,-1.953125,0.0
1699110193.7670696,-46.38671875,-94.7265625,-125.48828125,-21.484375,0.0
1699110193.7709703,-140.13671875,-116.2109375,-466.796875,-39.55078125,0.0
1699110193.7748709,-67.87109375,0.9765625,-222.16796875,-33.203125,0.0
1699110193.7787714,98.6328125,54.6875,241.2109375,-16.6015625,0.0
1699110193.782672,10.25390625,-34.66796875,27.34375,-33.203125,0.0
1699110193.7865725,-142.578125,-78.125,-384.27734375,-59.08203125,0.0
1699110193.790473,-118.65234375,-34.1796875,-332.03125,-65.4296875,0.0
1699110193.794465,54.6875,9.765625,12.20703125,-30.76171875,0.0
1699110193.7983656,48.828125,1.46484375,171.875,-20.01953125,0.0
1699110193.8022661,-130.859375,-59.08203125,-172.8515625,-56.640625,0.0
1699110193.8061666,-137.6953125,-56.15234375,-379.39453125,-65.91796875,0.0
1699110193.8100672,8.7890625,-11.71875,-71.2890625,-30.76171875,0.0
1699110193.8139677,82.51953125,-8.30078125,207.51953125,-22.94921875,0.0
1699110193.8178682,-94.23828125,-69.82421875,-169.921875,-62.98828125,0.0
1699110193.821769,-158.69140625,-93.26171875,-491.69921875,-75.68359375,0.0
1699110193.8256695,-45.8984375,-63.4765625,-375.48828125,-52.24609375,0.0
1699110193.82957,107.91015625,18.5546875,141.11328125,-16.11328125,0.0
1699110193.8334706,-38.0859375,15.625,94.7265625,-45.8984375,0.0
1699110193.837371,-151.85546875,-49.31640625,-301.7578125,-69.3359375,0.0
1699110193.8413527,-70.3125,-56.15234375,-337.40234375,-52.734375,0.0
1699110193.8452532,98.6328125,48.828125,166.015625,-24.90234375,0.0
1699110193.849154,24.4140625,24.4140625,240.72265625,-31.73828125,0.0
1699110193.8530545,-128.90625,-88.8671875,-268.5546875,-50.78125,0.0
1699110193.856955,-107.91015625,-103.02734375,-459.47265625,-41.50390625,0.0
1699110193.8608556,57.12890625,-21.484375,-53.22265625,-10.25390625,0.0
1699110193.864756,74.70703125,23.4375,217.28515625,-2.44140625,0.0
1699110193.8686569,-105.95703125,-46.38671875,-155.76171875,-38.57421875,0.0
1699110193.8725574,-129.8828125,-160.15625,-627.9296875,-50.29296875,0.0
1699110193.876458,12.6953125,-59.5703125,-267.08984375,-16.11328125,0.0
1699110193.8803585,92.28515625,102.05078125,381.34765625,2.9296875,0.0
1699110193.884259,-78.125,-44.43359375,-68.84765625,-32.71484375,0.0
1699110193.8882322,-145.5078125,-114.2578125,-480.95703125,-49.31640625,0.0
1699110193.8921328,-51.26953125,-23.4375,-194.82421875,-26.3671875,0.0
1699110193.8960335,96.6796875,67.3828125,311.5234375,5.37109375,0.0
1699110193.899934,-29.78515625,-46.875,42.96875,-20.01953125,0.0
1699110193.9038346,-154.296875,-142.08984375,-444.82421875,-52.734375,0.0
1699110193.907735,-103.02734375,-98.6328125,-417.48046875,-41.015625,0.0
1699110193.9116359,73.2421875,8.30078125,137.20703125,-5.37109375,0.0
1699110193.9155364,18.06640625,-40.52734375,62.5,-10.25390625,0.0
1699110193.919437,-146.484375,-147.4609375,-486.328125,-48.33984375,0.0
1699110193.9233375,-127.44140625,-45.8984375,-388.671875,-41.50390625,0.0
1699110193.927238,32.71484375,57.12890625,88.37890625,-5.37109375,0.0
1699110193.9311388,60.05859375,8.30078125,177.734375,7.32421875,0.0
1699110193.9351017,-117.1875,-79.1015625,-227.5390625,-16.11328125,0.0
1699110193.9390025,-142.578125,-62.5,-339.84375,-36.62109375,0.0
1699110193.942903,-8.7890625,-5.37109375,-46.875,-22.4609375,0.0
1699110193.9468036,96.19140625,16.6015625,269.53125,-3.41796875,0.0
1699110193.950704,-55.6640625,-65.91796875,-66.89453125,-35.15625,0.0
1699110193.9546049,-128.90625,-111.81640625,-428.22265625,-62.5,0.0
1699110193.9585054,-31.73828125,-41.50390625,-315.91796875,-45.41015625,0.0
1699110193.962406,125.9765625,0.48828125,49.31640625,-14.16015625,0.0
1699110193.9663064,2.9296875,-50.78125,-122.55859375,-40.52734375,0.0
1699110193.9702072,-126.953125,-24.4140625,-317.3828125,-61.5234375,0.0
1699110193.9741077,-65.4296875,-32.2265625,-338.8671875,-42.96875,0.0
1699110193.9780083,108.3984375,21.97265625,23.4375,-16.6015625,0.0
1699110193.9819746,62.98828125,34.66796875,221.6796875,-26.3671875,0.0
1699110193.9858751,-110.3515625,-49.8046875,-193.359375,-53.22265625,0.0
1699110193.9897757,-100.5859375,-92.7734375,-509.27734375,-54.19921875,0.0
1699110193.9936764,59.5703125,14.6484375,-80.078125,-26.85546875,0.0
1699110193.997577,96.19140625,64.94140625,289.55078125,-15.625,0.0
1699110194.0014775,-85.44921875,-69.3359375,-226.07421875,-52.734375,0.0
1699110194.005378,-122.55859375,-128.41796875,-566.89453125,-58.10546875,0.0
1699110194.0092788,-4.39453125,-59.08203125,-374.0234375,-20.99609375,0.0
1699110194.0131793,96.19140625,84.9609375,213.8671875,-13.671875,0.0
1699110194.0170798,-66.40625,13.18359375,105.46875,-45.8984375,0.0
1699110194.0209804,-147.4609375,-106.4453125,-421.38671875,-56.15234375,0.0
1699110194.0248811,-61.5234375,-62.5,-377.9296875,-41.50390625,0.0
1699110194.028838,90.8203125,79.1015625,249.51171875,-11.23046875,0.0
1699110194.0327384,-13.18359375,5.37109375,196.2890625,-30.76171875,0.0
1699110194.036639,-158.203125,-116.69921875,-310.05859375,-65.4296875,0.0
1699110194.0405397,-123.046875,-70.80078125,-350.5859375,-59.5703125,0.0
1699110194.0444403,61.03515625,27.34375,157.71484375,-13.18359375,0.0
1699110194.0483408,44.921875,-20.01953125,188.4765625,-4.39453125,0.0
1699110194.0522416,-125.9765625,-163.0859375,-449.21875,-29.78515625,0.0
1699110194.056142,-126.953125,-112.3046875,-562.98828125,-36.62109375,0.0
1699110194.0600426,31.73828125,56.15234375,39.0625,-16.6015625,0.0
1699110194.0639431,95.703125,35.15625,253.41796875,-5.37109375,0.0
1699110194.067844,-88.8671875,-77.1484375,-235.3515625,-40.0390625,0.0
1699110194.0717444,-123.53515625,-62.5,-411.62109375,-39.55078125,0.0
1699110194.075692,-0.9765625,16.11328125,-50.78125,-21.484375,0.0
1699110194.0795925,119.140625,41.50390625,295.41015625,-2.44140625,0.0
1699110194.083493,-22.4609375,-65.91796875,-78.125,-20.5078125,0.0
1699110194.0873935,-117.1875,-76.171875,-386.23046875,-42.96875,0.0
1699110194.0912943,-37.109375,-23.92578125,-303.22265625,-29.296875,0.0
1699110194.0951948,125.0,13.18359375,124.51171875,4.39453125,0.0
1699110194.0990953,37.59765625,-67.87109375,-99.609375,0.9765625,0.0
1699110194.102996,-109.375,-90.8203125,-519.04296875,-27.83203125,0.0
1699110194.1068966,-84.47265625,-18.5546875,-364.2578125,-32.2265625,0.0
1699110194.1107972,80.56640625,44.921875,56.15234375,-9.27734375,0.0
1699110194.114698,67.87109375,28.3203125,201.171875,-12.20703125,0.0
1699110194.1185985,-109.375,-39.55078125,-157.2265625,-46.875,0.0
1699110194.1225498,-130.859375,-58.59375,-401.3671875,-58.59375,0.0
1699110194.1264505,7.32421875,-8.30078125,-106.4453125,-27.83203125,0.0
1699110194.130351,82.51953125,41.015625,256.34765625,-13.671875,0.0
1699110194.1342516,-95.21484375,-34.66796875,10.25390625,-49.31640625,0.0
1699110194.1381524,-146.484375,-86.42578125,-354.98046875,-47.8515625,0.0
1699110194.142053,-32.2265625,-70.80078125,-361.328125,-30.76171875,0.0
1699110194.1459534,97.65625,13.18359375,160.15625,-6.8359375,0.0
1699110194.1498542,-44.43359375,4.8828125,168.45703125,-32.2265625,0.0
1699110194.1537547,-158.69140625,-65.4296875,-276.85546875,-66.89453125,0.0
1699110194.1576552,-90.33203125,-104.98046875,-440.4296875,-47.36328125,0.0
1699110194.1615558,72.75390625,3.41796875,64.94140625,-16.6015625,0.0
1699110194.1654565,-2.9296875,36.62109375,251.46484375,-28.80859375,0.0
1699110194.1694903,-151.3671875,-81.54296875,-228.515625,-37.59765625,0.0
1699110194.173391,-125.48828125,-95.21484375,-415.52734375,-33.69140625,0.0
1699110194.1772916,36.62109375,19.04296875,70.3125,-14.6484375,0.0
1699110194.1811924,46.38671875,32.71484375,284.66796875,-5.859375,0.0
1699110194.185093,-126.953125,-102.5390625,-221.19140625,-40.0390625,0.0
1699110194.1889935,-139.16015625,-147.94921875,-562.5,-43.9453125,0.0
1699110194.1928942,0.0,-50.29296875,-189.94140625,-20.5078125,0.0
1699110194.1967947,89.35546875,25.87890625,301.7578125,-18.5546875,0.0
1699110194.2006953,-75.68359375,-87.40234375,-149.4140625,-45.41015625,0.0
1699110194.204596,-142.08984375,-144.04296875,-593.26171875,-54.6875,0.0
1699110194.2084966,-40.0390625,3.90625,-189.94140625,-49.8046875,0.0
1699110194.2123973,110.3515625,88.8671875,327.1484375,-16.11328125,0.0
1699110194.2163823,-9.765625,-45.8984375,-13.18359375,-34.66796875,0.0
1699110194.2202828,-126.953125,-119.140625,-492.67578125,-57.12890625,0.0
1699110194.2241836,-67.87109375,-26.85546875,-297.36328125,-40.0390625,0.0
1699110194.228084,106.4453125,60.546875,250.0,-6.8359375,0.0
1699110194.2319849,47.36328125,-22.94921875,75.1953125,-7.8125,0.0
1699110194.2358854,-124.51171875,-129.39453125,-451.66015625,-43.9453125,0.0
1699110194.239786,-110.3515625,-90.8203125,-480.95703125,-46.875,0.0
1699110194.2436867,49.31640625,11.71875,-50.78125,-20.99609375,0.0
1699110194.2475872,77.1484375,21.97265625,189.94140625,-8.30078125,0.0
1699110194.251488,-98.14453125,-58.59375,-193.84765625,-39.0625,0.0
1699110194.2553885,-121.09375,-62.01171875,-402.34375,-41.50390625,0.0
1699110194.259289,8.30078125,3.41796875,-81.54296875,-15.13671875,0.0
1699110194.2632658,103.02734375,-24.4140625,116.2109375,7.32421875,0.0
1699110194.2671664,-60.05859375,-64.453125,-207.03125,-14.16015625,0.0
1699110194.2710671,-139.16015625,-30.76171875,-306.15234375,-40.0390625,0.0
1699110194.2749677,-46.38671875,-35.15625,-276.3671875,-39.55078125,0.0
1699110194.2788684,109.86328125,14.16015625,164.55078125,-18.06640625,0.0
1699110194.282769,-8.30078125,-42.48046875,10.7421875,-33.203125,0.0
1699110194.2866697,-140.13671875,-93.75,-422.8515625,-55.6640625,0.0
1699110194.2905703,-90.33203125,-90.33203125,-479.4921875,-42.96875,0.0
1699110194.2944708,66.89453125,-15.625,-86.9140625,-5.37109375,0.0
1699110194.2983716,15.625,45.8984375,231.93359375,-17.08984375,0.0
1699110194.302272,-144.04296875,-40.0390625,-133.30078125,-53.7109375,0.0
1699110194.3061728,-129.8828125,-98.6328125,-414.55078125,-40.0390625,0.0
1699110194.3101382,28.80859375,0.9765625,-23.92578125,-10.25390625,0.0
1699110194.3140388,69.3359375,51.26953125,303.7109375,-6.34765625,0.0
1699110194.3179395,-112.3046875,-69.82421875,-96.6796875,-39.0625,0.0
1699110194.32184,-139.6484375,-114.74609375,-422.8515625,-44.43359375,0.0
1699110194.3257406,-10.7421875,-28.3203125,-125.0,-20.5078125,0.0
1699110194.3296413,106.4453125,27.34375,260.25390625,-1.46484375,0.0
1699110194.3335419,-44.43359375,-59.5703125,-113.76953125,-37.59765625,0.0
1699110194.3374426,-121.09375,-158.69140625,-609.375,-48.33984375,0.0
1699110194.3413432,-28.80859375,-80.56640625,-430.6640625,-18.5546875,0.0
1699110194.345244,110.83984375,119.62890625,317.3828125,0.9765625,0.0
1699110194.3491445,6.34765625,11.23046875,156.73828125,-23.4375,0.0
1699110194.3530452,-124.51171875,-96.19140625,-367.1875,-55.17578125,0.0
1699110194.3570135,-77.63671875,-42.96875,-362.3046875,-45.8984375,0.0
1699110194.3609142,90.33203125,52.24609375,168.9453125,-14.16015625,0.0
1699110194.3648148,58.10546875,5.37109375,196.77734375,-13.18359375,0.0
1699110194.3687155,-116.2109375,-107.91015625,-320.3125,-49.8046875,0.0
1699110194.372616,-121.58203125,-88.8671875,-430.6640625,-52.734375,0.0
1699110194.3765168,35.64453125,-19.53125,-48.33984375,-0.9765625,0.0
1699110194.3804173,104.4921875,-20.01953125,151.85546875,16.6015625,0.0
1699110194.384318,-82.51953125,-125.48828125,-349.12109375,-18.06640625,0.0
1699110194.3882186,-129.39453125,-55.6640625,-408.203125,-30.2734375,0.0
1699110194.3921194,-14.16015625,4.8828125,-122.55859375,-16.11328125,0.0
1699110194.39602,101.07421875,18.06640625,155.2734375,5.859375,0.0
1699110194.3999207,-46.38671875,-32.71484375,39.0625,-21.484375,0.0
1699110194.40388,-151.85546875,-75.1953125,-252.44140625,-39.55078125,0.0
1699110194.4077806,-65.91796875,-50.29296875,-278.80859375,-27.83203125,0.0
1699110194.4116812,97.16796875,18.06640625,152.34375,1.46484375,0.0
1699110194.415582,2.9296875,-1.953125,172.36328125,-7.32421875,0.0
1699110194.4194825,-140.13671875,-83.49609375,-253.41796875,-26.3671875,0.0
1699110194.4233832,-104.98046875,-86.42578125,-433.10546875,-25.390625,0.0
1699110194.4272838,65.91796875,-47.8515625,-115.72265625,-3.90625,0.0
1699110194.4311845,56.15234375,-18.06640625,134.27734375,0.48828125,0.0
1699110194.435085,-130.37109375,-18.5546875,-34.66796875,-30.76171875,0.0
1699110194.4389858,-137.6953125,-68.84765625,-342.28515625,-41.50390625,0.0
1699110194.4428864,9.765625,-0.48828125,-50.29296875,-20.01953125,0.0
1699110194.446787,69.3359375,32.71484375,326.171875,-1.953125,0.0
1699110194.4507372,-97.16796875,-70.80078125,-105.95703125,-40.52734375,0.0
1699110194.4546378,-144.04296875,-100.5859375,-451.66015625,-70.3125,0.0
1699110194.4585385,-33.203125,-36.62109375,-158.69140625,-45.8984375,0.0
1699110194.462439,106.4453125,60.546875,351.5625,-15.13671875,0.0
1699110194.4663398,-29.78515625,-31.73828125,50.78125,-41.015625,0.0
1699110194.4702406,-136.23046875,-132.8125,-464.84375,-64.94140625,0.0
1699110194.4741411,-62.01171875,-128.41796875,-505.859375,-47.8515625,0.0
1699110194.478042,107.91015625,41.50390625,139.6484375,-11.71875,0.0
1699110194.4819424,31.73828125,49.31640625,281.73828125,-33.203125,0.0
1699110194.4858432,-124.51171875,-110.83984375,-339.84375,-65.4296875,0.0
1699110194.4897437,-101.5625,-88.37890625,-482.91015625,-60.05859375,0.0
1699110194.4936445,67.3828125,50.29296875,107.421875,-26.3671875,0.0
1699110194.4975853,71.2890625,34.66796875,283.203125,-17.08984375,0.0
1699110194.501486,-109.86328125,-96.6796875,-204.1015625,-51.7578125,0.0
1699110194.5053866,-128.90625,-114.2578125,-483.88671875,-56.15234375,0.0
1699110194.5092874,12.6953125,2.9296875,-62.01171875,-26.3671875,0.0
1699110194.5131881,95.703125,53.7109375,323.2421875,-15.13671875,0.0
1699110194.5170887,-67.87109375,-114.2578125,-210.44921875,-35.64453125,0.0
1699110194.5209894,-130.859375,-126.46484375,-500.9765625,-51.26953125,0.0
1699110194.52489,-35.15625,2.44140625,-176.7578125,-52.734375,0.0
1699110194.5287907,114.74609375,51.26953125,277.83203125,-14.6484375,0.0
1699110194.5326912,-12.20703125,-68.84765625,-33.203125,-22.94921875,0.0
1699110194.536592,-136.23046875,-81.54296875,-392.08984375,-61.03515625,0.0
1699110194.5404925,-82.03125,-17.08984375,-292.48046875,-53.7109375,0.0
1699110194.5444753,82.03125,35.15625,163.0859375,-12.20703125,0.0
1699110194.5483758,16.11328125,-14.6484375,76.171875,-20.5078125,0.0
1699110194.5522766,-140.625,-69.82421875,-317.87109375,-48.828125,0.0
1699110194.5561774,-109.375,-35.15625,-304.19921875,-37.109375,0.0
1699110194.560078,38.0859375,-1.46484375,7.8125,-6.8359375,0.0
1699110194.5639787,50.29296875,-29.78515625,111.328125,-8.30078125,0.0
1699110194.5678792,-104.98046875,-84.9609375,-296.875,-36.62109375,0.0
1699110194.57178,-128.90625,-89.84375,-481.93359375,-53.7109375,0.0
1699110194.5756805,4.8828125,-38.57421875,-236.81640625,-30.2734375,0.0
1699110194.5795813,106.93359375,26.3671875,169.921875,0.0,0.0
1699110194.583482,-57.12890625,7.32421875,46.875,-36.1328125,0.0
1699110194.5873826,-124.0234375,-44.43359375,-277.34375,-50.29296875,0.0
1699110194.5913694,-24.4140625,-39.55078125,-299.8046875,-32.2265625,0.0
1699110194.5952702,125.0,53.22265625,183.10546875,-1.953125,0.0
1699110194.5991707,7.8125,6.34765625,113.76953125,-16.11328125,0.0
1699110194.6030715,-119.62890625,-76.171875,-340.33203125,-44.43359375,0.0
1699110194.6069722,-63.96484375,-75.68359375,-422.8515625,-20.99609375,0.0
1699110194.6108727,106.4453125,-0.48828125,-12.6953125,16.6015625,0.0
1699110194.6147735,50.29296875,16.11328125,184.5703125,0.0,0.0
1699110194.618674,-118.65234375,-45.41015625,-220.703125,-32.71484375,0.0
1699110194.6225748,-112.3046875,-130.37109375,-591.796875,-23.92578125,0.0
1699110194.6264756,39.55078125,-20.01953125,-173.828125,1.953125,0.0
1699110194.630376,75.68359375,98.14453125,346.19140625,0.0,0.0
1699110194.6342769,-100.09765625,-57.6171875,-122.0703125,-29.296875,0.0
1699110194.6382546,-129.8828125,-103.515625,-476.07421875,-39.55078125,0.0
1699110194.6421554,-13.18359375,5.859375,-69.3359375,-24.90234375,0.0
1699110194.6460562,97.65625,66.40625,372.55859375,-9.765625,0.0
1699110194.6499567,-68.359375,-62.98828125,-47.8515625,-34.66796875,0.0
1699110194.6538575,-145.5078125,-120.60546875,-462.40234375,-46.38671875,0.0
1699110194.6577582,-43.9453125,-51.26953125,-332.51953125,-29.78515625,0.0
1699110194.6616588,92.7734375,40.0390625,190.4296875,-3.90625,0.0
1699110194.6655595,-12.20703125,-40.52734375,-43.45703125,-17.578125,0.0
1699110194.66946,-152.83203125,-141.11328125,-597.16796875,-37.109375,0.0
1699110194.6733608,-98.14453125,-22.94921875,-312.98828125,-38.57421875,0.0
1699110194.6772616,71.77734375,64.94140625,196.77734375,-15.13671875,0.0
1699110194.681162,21.484375,-16.6015625,106.93359375,-16.6015625,0.0
1699110194.6851304,-146.97265625,-89.35546875,-311.03515625,-45.41015625,0.0
1699110194.6890311,-141.11328125,-60.546875,-366.2109375,-45.41015625,0.0
1699110194.692932,11.23046875,12.6953125,16.6015625,-26.3671875,0.0
1699110194.6968324,71.2890625,2.9296875,247.0703125,-15.13671875,0.0
1699110194.7007332,-106.93359375,-83.984375,-114.74609375,-37.59765625,0.0
1699110194.704634,-148.4375,-124.0234375,-453.125,-47.36328125,0.0
1699110194.7085345,-26.3671875,-44.43359375,-225.5859375,-35.15625,0.0
1699110194.7124352,102.05078125,-14.16015625,85.44921875,-6.8359375,0.0
1699110194.716336,-49.8046875,-77.63671875,-258.30078125,-25.390625,0.0
1699110194.7202365,-147.4609375,-27.34375,-341.30859375,-53.22265625,0.0
1699110194.7241373,-57.6171875,-20.99609375,-224.609375,-42.48046875,0.0
1699110194.728038,113.76953125,45.41015625,208.49609375,-5.37109375,0.0
1699110194.7320478,32.71484375,19.04296875,208.0078125,-13.671875,0.0
1699110194.7359486,-116.69921875,-84.9609375,-278.80859375,-41.9921875,0.0
1699110194.7398493,-81.0546875,-102.5390625,-493.65234375,-39.55078125,0.0
1699110194.7437499,99.609375,22.4609375,3.90625,-4.8828125,0.0
1699110194.7476506,86.42578125,36.62109375,227.05078125,-6.34765625,0.0
1699110194.7515514,-104.00390625,-101.5625,-312.98828125,-54.19921875,0.0
1699110194.7554522,-114.2578125,-127.9296875,-543.45703125,-54.19921875,0.0
1699110194.7593527,37.109375,-45.8984375,-288.0859375,-19.04296875,0.0
1699110194.7632535,106.93359375,76.66015625,213.8671875,-1.46484375,0.0
1699110194.7671542,-64.94140625,3.41796875,67.87109375,-27.34375,0.0
1699110194.7710547,-124.51171875,-100.5859375,-408.203125,-41.015625,0.0
1699110194.7749555,-14.6484375,-33.203125,-225.09765625,-17.578125,0.0
1699110194.7789192,121.09375,72.265625,346.6796875,7.8125,0.0
1699110194.78282,-18.5546875,-20.99609375,124.0234375,-13.18359375,0.0
1699110194.7867205,-133.30078125,-104.4921875,-331.0546875,-36.1328125,0.0
1699110194.7906213,-62.01171875,-55.17578125,-327.1484375,-30.2734375,0.0
1699110194.794522,111.81640625,39.55078125,204.58984375,-0.9765625,0.0
1699110194.7984228,23.92578125,-28.80859375,47.36328125,-15.625,0.0
1699110194.8023233,-138.18359375,-121.58203125,-446.77734375,-36.62109375,0.0
1699110194.806224,-119.62890625,-62.5,-356.93359375,-39.55078125,0.0
1699110194.8101249,40.52734375,48.828125,124.0234375,-20.5078125,0.0
1699110194.8140256,51.7578125,33.69140625,276.85546875,-9.27734375,0.0
1699110194.8179262,-120.60546875,-144.53125,-363.76953125,-41.015625,0.0
1699110194.821827,-135.25390625,-119.140625,-571.2890625,-43.45703125,0.0
1699110194.8257797,3.41796875,57.6171875,13.671875,-22.94921875,0.0
1699110194.8296802,92.28515625,47.8515625,270.01953125,-2.9296875,0.0
1699110194.833581,-76.66015625,-68.359375,-187.01171875,-33.69140625,0.0
1699110194.8374817,-148.92578125,-70.80078125,-394.04296875,-57.6171875,0.0
1699110194.8413825,-41.50390625,-20.99609375,-174.8046875,-35.15625,0.0
1699110194.845283,116.2109375,1.953125,203.125,-0.48828125,0.0
1699110194.8491838,-5.37109375,-104.4921875,-137.20703125,-20.99609375,0.0
1699110194.8530846,-128.90625,-103.02734375,-473.14453125,-46.875,0.0
1699110194.8569853,-71.2890625,-21.97265625,-335.44921875,-34.66796875,0.0
1699110194.8608859,102.05078125,25.390625,64.453125,-6.8359375,0.0
1699110194.8647866,41.015625,-2.9296875,160.15625,-15.13671875,0.0
1699110194.8686874,-119.140625,-53.7109375,-204.1015625,-39.55078125,0.0
1699110194.8726306,-102.05078125,-41.9921875,-372.0703125,-43.45703125,0.0
1699110194.8765314,53.7109375,14.16015625,-17.578125,-14.6484375,0.0
1699110194.8804321,74.21875,16.6015625,224.609375,-0.48828125,0.0
1699110194.8843327,-114.74609375,-62.01171875,-42.96875,-40.52734375,0.0
1699110194.8882334,-130.37109375,-90.33203125,-342.28515625,-48.33984375,0.0
1699110194.8921342,8.7890625,-71.2890625,-326.66015625,-23.4375,0.0
1699110194.896035,96.6796875,12.20703125,148.92578125,-6.34765625,0.0
1699110194.8999355,-67.87109375,-1.46484375,112.3046875,-34.1796875,0.0
1699110194.9038363,-147.4609375,-87.890625,-353.515625,-48.33984375,0.0
1699110194.907737,-51.26953125,-95.21484375,-426.26953125,-26.85546875,0.0
1699110194.9116378,89.35546875,32.2265625,167.96875,-7.8125,0.0
1699110194.9155383,-35.15625,21.97265625,230.95703125,-31.25,0.0
1699110194.9195242,-156.25,-100.5859375,-295.41015625,-56.15234375,0.0
1699110194.923425,-105.95703125,-93.26171875,-404.78515625,-55.17578125,0.0
1699110194.9273257,53.22265625,35.15625,143.5546875,-26.85546875,0.0
1699110194.9312263,6.34765625,29.78515625,271.484375,-26.85546875,0.0
1699110194.935127,-150.390625,-106.93359375,-268.06640625,-57.6171875,0.0
1699110194.9390278,-142.08984375,-140.13671875,-541.50390625,-52.734375,0.0
1699110194.9429286,18.5546875,-13.671875,-74.70703125,-22.4609375,0.0
1699110194.946829,58.59375,28.80859375,219.23828125,-19.53125,0.0
1699110194.9507298,-124.0234375,-104.98046875,-345.703125,-53.22265625,0.0
1699110194.9546306,-153.3203125,-121.58203125,-601.07421875,-58.10546875,0.0
1699110194.9585314,-27.34375,34.66796875,-58.59375,-39.0625,0.0
1699110194.9624321,77.1484375,74.70703125,341.30859375,-15.625,0.0
1699110194.966409,-79.58984375,-77.63671875,-106.4453125,-33.69140625,0.0
1699110194.9703097,-157.71484375,-106.4453125,-435.546875,-60.546875,0.0
1699110194.9742105,-69.82421875,-13.671875,-210.9375,-45.41015625,0.0
1699110194.9781113,88.8671875,56.640625,286.62109375,-12.6953125,0.0
1699110194.9820118,-9.27734375,-40.52734375,24.90234375,-21.484375,0.0
1699110194.9859126,-134.27734375,-140.13671875,-559.5703125,-49.31640625,0.0
1699110194.9898133,-91.796875,-83.984375,-488.28125,-47.36328125,0.0
1699110194.993714,74.21875,57.6171875,187.5,-19.53125,0.0
1699110194.9976149,50.29296875,-47.36328125,13.671875,-13.18359375,0.0
1699110195.0015156,-114.74609375,-131.34765625,-541.9921875,-37.109375,0.0
1699110195.0054162,-108.3984375,-12.6953125,-342.7734375,-47.8515625,0.0
1699110195.009317,51.7578125,29.296875,9.765625,-14.16015625,0.0
1699110195.0132968,112.3046875,25.87890625,243.65234375,5.37109375,0.0
1699110195.0171976,-71.77734375,-38.57421875,-35.64453125,-35.64453125,0.0
1699110195.0210984,-125.48828125,-68.84765625,-333.49609375,-57.12890625,0.0
1699110195.024999,3.90625,-31.73828125,-229.98046875,-25.390625,0.0
1699110195.0288997,124.0234375,35.64453125,255.859375,0.0,0.0
1699110195.0328004,-37.109375,-50.78125,-57.12890625,-27.34375,0.0
1699110195.0367012,-133.7890625,-107.91015625,-504.39453125,-49.31640625,0.0
1699110195.040602,-51.26953125,-73.73046875,-429.6875,-39.55078125,0.0
1699110195.0445027,111.328125,3.41796875,29.296875,-3.90625,0.0
1699110195.0484035,13.18359375,32.71484375,229.4921875,-17.578125,0.0
1699110195.052304,-128.41796875,-41.9921875,-148.92578125,-46.875,0.0
1699110195.0562048,-90.8203125,-90.33203125,-387.20703125,-46.875,0.0
1699110195.0601752,75.1953125,5.859375,24.4140625,-19.53125,0.0
1699110195.064076,58.59375,42.48046875,308.10546875,-22.94921875,0.0
1699110195.0679767,-121.58203125,-68.359375,-138.671875,-54.19921875,0.0
1699110195.0718775,-120.1171875,-94.23828125,-394.53125,-52.24609375,0.0
1699110195.0757782,9.27734375,-20.01953125,-71.2890625,-28.3203125,0.0
1699110195.079679,67.87109375,-6.34765625,201.66015625,-12.6953125,0.0
1699110195.0835795,-77.63671875,-83.0078125,-156.73828125,-38.0859375,0.0
1699110195.0874803,-133.30078125,-160.64453125,-603.02734375,-49.31640625,0.0
1699110195.091381,-15.13671875,-62.01171875,-296.38671875,-21.484375,0.0
1699110195.0952818,130.37109375,110.83984375,392.08984375,6.34765625,0.0
1699110195.0991826,-8.30078125,-19.53125,43.9453125,-15.625,0.0
1699110195.1030834,-114.74609375,-105.95703125,-422.36328125,-39.0625,0.0
1699110195.1070447,-41.015625,-27.83203125,-254.39453125,-26.3671875,0.0
1699110195.1109455,122.0703125,76.171875,307.6171875,3.41796875,0.0
1699110195.1148462,51.7578125,-21.484375,187.01171875,-5.859375,0.0
1699110195.118747,-99.12109375,-135.7421875,-318.84765625,-42.48046875,0.0
1699110195.1226478,-87.890625,-85.9375,-384.27734375,-46.38671875,0.0
1699110195.1265483,79.58984375,-1.953125,22.94921875,-8.7890625,0.0
1699110195.130449,92.7734375,-26.85546875,148.92578125,0.0,0.0
1699110195.1343498,-88.37890625,-146.97265625,-385.25390625,-27.34375,0.0
1699110195.1382506,-116.69921875,-101.07421875,-501.953125,-41.9921875,0.0
1699110195.1421514,20.01953125,15.625,-49.8046875,-20.99609375,0.0
1699110195.1460521,99.609375,38.57421875,248.53515625,5.37109375,0.0
1699110195.149953,-69.82421875,-57.12890625,-95.21484375,-29.296875,0.0
1699110195.1539059,-128.41796875,-72.75390625,-299.8046875,-57.6171875,0.0
1699110195.1578064,-31.73828125,-26.3671875,-125.9765625,-40.52734375,0.0
1699110195.1617072,102.5390625,20.5078125,247.0703125,-9.765625,0.0
1699110195.165608,-37.109375,-43.45703125,125.48828125,-30.76171875,0.0
1699110195.1695087,-156.25,-106.4453125,-241.2109375,-54.6875,0.0
1699110195.1734095,-93.75,-91.30859375,-388.18359375,-43.45703125,0.0
1699110195.1773102,75.1953125,-56.640625,-84.9609375,-4.39453125,0.0
1699110195.181211,4.39453125,-62.5,3.90625,-22.94921875,0.0
1699110195.1851118,-159.1796875,-45.8984375,-122.55859375,-66.89453125,0.0
1699110195.1890125,-128.41796875,-70.80078125,-361.81640625,-46.38671875,0.0
1699110195.1929133,31.25,-9.27734375,-19.04296875,-23.4375,0.0
1699110195.196814,58.10546875,8.30078125,228.515625,-23.4375,0.0
1699110195.2007825,-126.46484375,-57.6171875,-132.8125,-43.9453125,0.0
1699110195.2046833,-153.80859375,-87.40234375,-376.46484375,-59.08203125,0.0
1699110195.208584,-3.41796875,-34.1796875,-104.4921875,-35.15625,0.0
1699110195.2124848,100.5859375,47.36328125,358.88671875,-11.23046875,0.0
1699110195.2163856,-67.87109375,-57.6171875,20.5078125,-33.69140625,0.0
1699110195.2202864,-140.13671875,-143.5546875,-424.31640625,-46.875,0.0
1699110195.224187,-39.0625,-126.953125,-455.078125,-23.92578125,0.0
1699110195.2280877,114.74609375,40.0390625,182.12890625,4.39453125,0.0
1699110195.2319884,-0.9765625,31.73828125,255.859375,-19.53125,0.0
1699110195.2358892,-128.90625,-94.23828125,-326.66015625,-44.43359375,0.0
1699110195.23979,-70.3125,-51.7578125,-380.859375,-37.59765625,0.0
1699110195.2436907,104.98046875,75.1953125,239.2578125,0.48828125,0.0
1699110195.2476878,56.640625,35.15625,294.43359375,-6.34765625,0.0
1699110195.2515886,-108.3984375,-112.79296875,-246.58203125,-34.66796875,0.0
1699110195.2554893,-97.65625,-107.421875,-465.8203125,-35.64453125,0.0
1699110195.25939,60.05859375,51.7578125,82.03125,-19.04296875,0.0
1699110195.263291,102.05078125,58.59375,309.08203125,-12.6953125,0.0
1699110195.2671916,-79.58984375,-134.27734375,-319.3359375,-39.0625,0.0
1699110195.2710924,-109.375,-120.1171875,-543.45703125,-42.48046875,0.0
1699110195.2749932,18.06640625,44.43359375,-50.78125,-23.4375,0.0
1699110195.278894,122.55859375,67.87109375,342.28515625,-4.39453125,0.0
1699110195.2827947,-40.52734375,-72.75390625,-82.03125,-34.1796875,0.0
1699110195.2866955,-125.48828125,-85.9375,-371.09375,-60.05859375,0.0
1699110195.2905962,-41.50390625,-17.578125,-223.6328125,-52.24609375,0.0
1699110195.2945838,104.4921875,38.57421875,210.44921875,-23.4375,0.0
1699110195.2984846,-5.37109375,-26.3671875,77.63671875,-40.0390625,0.0
1699110195.3023853,-142.08984375,-74.21875,-310.546875,-68.359375,0.0
1699110195.306286,-111.81640625,-49.31640625,-310.05859375,-69.82421875,0.0
1699110195.3101869,53.7109375,12.20703125,119.140625,-29.78515625,0.0
1699110195.3140876,34.66796875,-29.78515625,177.734375,-21.97265625,0.0
1699110195.3179884,-135.25390625,-113.28125,-311.03515625,-63.96484375,0.0
1699110195.3218892,-136.23046875,-85.9375,-475.09765625,-70.80078125,0.0
1699110195.32579,16.6015625,-21.484375,-86.42578125,-44.921875,0.0
1699110195.3296907,65.91796875,-11.71875,173.33984375,-32.2265625,0.0
1699110195.3335915,-117.67578125,-28.3203125,-79.58984375,-60.05859375,0.0
1699110195.3374922,-157.2265625,-49.31640625,-265.625,-76.66015625,0.0
1699110195.3414714,-31.73828125,-36.62109375,-171.875,-51.26953125,0.0
1699110195.3453722,103.515625,41.50390625,241.2109375,-13.671875,0.0
1699110195.349273,-43.45703125,-11.71875,70.80078125,-41.9921875,0.0
1699110195.3531737,-137.6953125,-77.1484375,-324.70703125,-54.6875,0.0
1699110195.3570745,-51.7578125,-58.10546875,-338.37890625,-32.71484375,0.0
1699110195.3609753,110.83984375,24.4140625,142.578125,-10.25390625,0.0
1699110195.364876,18.5546875,2.44140625,167.96875,-16.6015625,0.0
1699110195.3687768,-127.44140625,-66.89453125,-298.828125,-42.48046875,0.0
1699110195.3726776,-101.5625,-129.39453125,-579.1015625,-40.0390625,0.0
1699110195.3765786,68.359375,-3.90625,-105.95703125,-5.37109375,0.0
1699110195.3804793,54.19921875,90.33203125,309.08203125,-12.6953125,0.0
1699110195.38438,-122.0703125,-63.4765625,-193.359375,-48.33984375,0.0
1699110195.3883495,-118.1640625,-97.16796875,-463.8671875,-43.9453125,0.0
1699110195.3922503,19.53125,21.484375,-14.6484375,-16.11328125,0.0
1699110195.396151,81.54296875,70.80078125,366.2109375,-3.41796875,0.0
1699110195.4000518,-90.33203125,-66.89453125,-64.453125,-38.0859375,0.0
1699110195.4039528,-137.6953125,-129.8828125,-487.79296875,-54.19921875,0.0
1699110195.4078536,-25.390625,-58.59375,-304.19921875,-33.69140625,0.0
1699110195.4117544,111.328125,25.87890625,218.75,-7.8125,0.0
1699110195.4156551,-37.59765625,-70.3125,-94.7265625,-28.3203125,0.0
1699110195.419556,-151.85546875,-143.5546875,-562.01171875,-52.734375,0.0
1699110195.4234567,-80.56640625,-26.3671875,-302.734375,-47.36328125,0.0
1699110195.4273574,80.078125,41.015625,192.3828125,-20.5078125,0.0
1699110195.4312582,0.0,-42.96875,4.39453125,-24.4140625,0.0
1699110195.4352322,-153.80859375,-88.37890625,-424.31640625,-51.7578125,0.0
1699110195.439133,-125.0,-52.734375,-365.72265625,-53.22265625,0.0
1699110195.4430337,43.45703125,14.16015625,61.5234375,-26.85546875,0.0
1699110195.4469347,52.734375,-0.48828125,202.1484375,-28.3203125,0.0
1699110195.4508355,-128.41796875,-85.9375,-252.44140625,-64.94140625,0.0
1699110195.4547362,-147.94921875,-115.234375,-522.94921875,-68.359375,0.0
1699110195.458637,-1.46484375,-25.390625,-174.31640625,-42.96875,0.0
1699110195.4625378,89.84375,-34.66796875,62.01171875,-18.5546875,0.0
1699110195.4664385,-90.33203125,-116.69921875,-355.46875,-42.96875,0.0
1699110195.4703393,-157.2265625,-25.390625,-373.53515625,-60.05859375,0.0
1699110195.47424,-44.43359375,-4.8828125,-186.5234375,-43.45703125,0.0
1699110195.4781408,104.4921875,38.0859375,252.9296875,-18.06640625,0.0
1699110195.4821057,-25.87890625,-29.78515625,86.9140625,-35.64453125,0.0
1699110195.4860065,-143.06640625,-109.375,-365.72265625,-57.12890625,0.0
1699110195.4899073,-75.68359375,-68.84765625,-383.30078125,-42.96875,0.0
1699110195.493808,97.16796875,23.4375,110.83984375,-20.99609375,0.0
1699110195.4977088,40.52734375,0.48828125,169.43359375,-32.2265625,0.0
1699110195.5016098,-122.0703125,-111.328125,-378.41796875,-56.640625,0.0
1699110195.5055106,-104.98046875,-111.81640625,-499.51171875,-50.78125,0.0
1699110195.5094113,55.6640625,-39.55078125,-206.54296875,-16.11328125,0.0
1699110195.513312,71.2890625,49.31640625,177.734375,-15.13671875,0.0
1699110195.5172129,-103.02734375,-20.99609375,-48.828125,-47.8515625,0.0
1699110195.5211136,-125.48828125,-104.98046875,-475.5859375,-54.6875,0.0
1699110195.5250144,4.8828125,-19.04296875,-160.64453125,-31.25,0.0
1699110195.5289702,110.3515625,69.82421875,374.51171875,-4.39453125,0.0
1699110195.532871,-49.8046875,-33.203125,32.2265625,-24.4140625,0.0
1699110195.5367718,-140.13671875,-115.72265625,-380.37109375,-46.875,0.0
1699110195.5406725,-51.26953125,-69.3359375,-295.8984375,-51.7578125,0.0
1699110195.5445733,107.421875,34.66796875,233.3984375,-27.34375,0.0
1699110195.5484743,-16.11328125,-33.203125,34.1796875,-40.0390625,0.0
1699110195.552375,-149.4140625,-172.36328125,-602.05078125,-59.08203125,0.0
1699110195.5562758,-92.7734375,-107.421875,-512.6953125,-42.48046875,0.0
1699110195.5601766,82.51953125,94.23828125,235.83984375,-19.53125,0.0
1699110195.5640774,41.50390625,30.2734375,257.8125,-20.01953125,0.0
1699110195.5679781,-126.46484375,-94.7265625,-265.13671875,-43.9453125,0.0
1699110195.571879,-114.74609375,-63.96484375,-389.6484375,-52.734375,0.0
1699110195.5758247,45.8984375,42.96875,57.6171875,-15.13671875,0.0
1699110195.5797255,83.984375,33.69140625,244.140625,0.9765625,0.0
1699110195.5836263,-92.7734375,-83.0078125,-219.23828125,-42.48046875,0.0
1699110195.587527,-135.25390625,-68.84765625,-403.80859375,-50.78125,0.0
1699110195.5914278,-13.671875,5.37109375,-47.8515625,-30.2734375,0.0
1699110195.5953288,109.86328125,5.37109375,253.90625,-16.11328125,0.0
1699110195.5992296,-45.41015625,-110.3515625,-237.3046875,-31.73828125,0.0
1699110195.6031303,-135.7421875,-97.65625,-484.86328125,-41.9921875,0.0
1699110195.607031,-52.24609375,-8.30078125,-241.69921875,-36.62109375,0.0
1699110195.6109319,123.53515625,45.8984375,196.77734375,-0.48828125,0.0
1699110195.6148326,19.53125,-35.15625,101.07421875,-7.8125,0.0
1699110195.6187336,-134.27734375,-69.82421875,-255.859375,-44.921875,0.0
1699110195.6226833,-87.40234375,-41.015625,-314.453125,-37.59765625,0.0
1699110195.626584,83.49609375,8.7890625,79.58984375,-0.9765625,0.0
1699110195.630485,51.26953125,0.48828125,200.1953125,-0.9765625,0.0
1699110195.6343858,-122.55859375,-62.98828125,-178.22265625,-35.15625,0.0
1699110195.6382866,-124.51171875,-84.47265625,-413.57421875,-41.50390625,0.0
1699110195.6421874,27.83203125,-63.96484375,-234.86328125,-8.7890625,0.0
1699110195.6460881,88.8671875,4.39453125,145.01953125,9.765625,0.0
1699110195.649989,-87.890625,-15.13671875,20.5078125,-23.4375,0.0
1699110195.65389,-138.18359375,-81.0546875,-360.3515625,-37.59765625,0.0
1699110195.6577907,-22.94921875,-52.24609375,-336.42578125,-9.27734375,0.0
1699110195.6616914,102.05078125,59.5703125,211.9140625,14.16015625,0.0
1699110195.6655922,-45.8984375,8.7890625,144.53125,-20.5078125,0.0
1699110195.669584,-147.4609375,-97.65625,-341.796875,-39.0625,0.0
1699110195.6734848,-67.87109375,-79.58984375,-393.06640625,-21.97265625,0.0
1699110195.6773856,100.09765625,54.19921875,205.56640625,3.41796875,0.0
1699110195.6812863,8.7890625,19.04296875,243.1640625,-10.7421875,0.0
1699110195.6851873,-143.06640625,-109.86328125,-314.94140625,-35.64453125,0.0
1699110195.689088,-116.69921875,-130.859375,-512.6953125,-38.0859375,0.0
1699110195.6929889,53.7109375,-1.46484375,8.30078125,-6.34765625,0.0
1699110195.6968896,42.96875,15.625,197.75390625,-3.41796875,0.0
1699110195.7007904,-138.18359375,-124.0234375,-388.671875,-38.57421875,0.0
1699110195.7046914,-140.625,-122.55859375,-574.21875,-41.9921875,0.0
1699110195.7085922,-4.39453125,34.66796875,-35.15625,-20.5078125,0.0
1699110195.712493,69.3359375,36.62109375,239.2578125,-9.765625,0.0
1699110195.7164755,-94.7265625,-92.7734375,-225.5859375,-35.64453125,0.0
1699110195.7203763,-156.73828125,-84.9609375,-470.703125,-53.7109375,0.0
1699110195.724277,-41.9921875,2.9296875,-119.62890625,-41.015625,0.0
1699110195.728178,103.515625,62.98828125,355.46875,-8.30078125,0.0
1699110195.7320788,-34.66796875,-58.59375,-32.71484375,-27.83203125,0.0
1699110195.7359796,-150.87890625,-133.7890625,-508.7890625,-55.17578125,0.0
1699110195.7398803,-76.171875,-48.33984375,-325.68359375,-48.33984375,0.0
1699110195.7437813,103.02734375,73.2421875,292.48046875,-20.01953125,0.0
1699110195.747682,34.1796875,-69.82421875,-32.2265625,-24.4140625,0.0
1699110195.7515829,-119.140625,-145.99609375,-542.48046875,-41.015625,0.0
1699110195.7554836,-92.28515625,-12.20703125,-287.109375,-41.015625,0.0
1699110195.7593846,70.3125,37.109375,74.21875,-17.08984375,0.0
1699110195.7633574,70.80078125,16.11328125,259.27734375,-7.8125,0.0
1699110195.7672582,-110.83984375,-55.6640625,-55.6640625,-45.41015625,0.0
1699110195.7711592,-120.1171875,-90.8203125,-394.04296875,-48.828125,0.0
1699110195.77506,19.53125,-29.78515625,-147.94921875,-12.6953125,0.0
1699110195.7789607,105.95703125,40.52734375,275.87890625,5.859375,0.0
1699110195.7828617,-68.359375,-54.6875,-114.2578125,-26.3671875,0.0
1699110195.7867625,-136.23046875,-101.07421875,-507.8125,-35.64453125,0.0
1699110195.7906632,-19.04296875,-54.6875,-348.6328125,-14.6484375,0.0
1699110195.794564,129.39453125,15.625,157.71484375,3.90625,0.0
1699110195.798465,-11.71875,19.53125,154.78515625,-21.97265625,0.0
1699110195.8023658,-134.27734375,-36.62109375,-214.35546875,-43.9453125,0.0
1699110195.8062665,-80.56640625,-62.01171875,-373.046875,-36.1328125,0.0
1699110195.8102303,85.9375,38.57421875,95.21484375,-12.20703125,0.0
1699110195.814131,27.83203125,35.15625,274.90234375,-10.25390625,0.0
1699110195.818032,-133.30078125,-83.0078125,-205.078125,-36.62109375,0.0
1699110195.8219328,-119.62890625,-99.12109375,-396.484375,-37.59765625,0.0
1699110195.8258336,38.0859375,-8.7890625,28.3203125,-14.6484375,0.0
1699110195.8297346,68.84765625,-5.859375,195.3125,-9.765625,0.0
1699110195.8336353,-115.72265625,-99.609375,-288.0859375,-32.2265625,0.0
1699110195.837536,-140.13671875,-161.1328125,-643.5546875,-40.52734375,0.0
1699110195.8414369,-2.9296875,-56.15234375,-261.71875,-19.04296875,0.0
1699110195.8453379,95.703125,97.65625,370.1171875,-2.9296875,0.0
1699110195.8492386,-66.89453125,-31.73828125,-12.20703125,-34.1796875,0.0
1699110195.8531394,-141.11328125,-98.6328125,-427.24609375,-55.6640625,0.0
1699110195.8571072,-35.64453125,-19.53125,-200.68359375,-37.59765625,0.0
1699110195.8610082,120.1171875,66.89453125,332.03125,-13.671875,0.0
1699110195.864909,-1.953125,-39.55078125,11.23046875,-24.90234375,0.0
1699110195.8688097,-131.8359375,-111.81640625,-454.58984375,-50.29296875,0.0
1699110195.8727107,-73.73046875,-46.875,-330.078125,-47.36328125,0.0
1699110195.8766115,100.09765625,20.01953125,102.5390625,-3.90625,0.0
1699110195.8805122,49.8046875,-20.5078125,109.86328125,-6.34765625,0.0
1699110195.884413,-124.51171875,-138.671875,-440.91796875,-30.76171875,0.0
1699110195.888314,-116.69921875,-74.21875,-487.3046875,-35.64453125,0.0
1699110195.8922148,37.59765625,69.3359375,55.6640625,-20.01953125,0.0
1699110195.8961155,78.125,31.25,213.37890625,-10.25390625,0.0
1699110195.9000165,-103.02734375,-89.35546875,-256.34765625,-42.48046875,0.0
1699110195.9039743,-141.6015625,-81.0546875,-391.11328125,-52.734375,0.0
1699110195.907875,-8.7890625,-10.7421875,-39.0625,-25.390625,0.0
1699110195.911776,107.91015625,16.11328125,276.3671875,-5.37109375,0.0
1699110195.9156768,-58.59375,-62.01171875,-3.90625,-27.34375,0.0
1699110195.9195776,-153.3203125,-94.7265625,-324.70703125,-44.921875,0.0
1699110195.9234786,-64.94140625,-74.70703125,-347.65625,-41.015625,0.0
1699110195.9273794,98.6328125,-54.19921875,6.8359375,-3.41796875,0.0
1699110195.9312801,-13.671875,-75.1953125,-51.26953125,-16.11328125,0.0
1699110195.9351811,-160.15625,-36.62109375,-254.8828125,-50.29296875,0.0
1699110195.939082,-120.60546875,-47.8515625,-336.42578125,-49.31640625,0.0
1699110195.9429827,51.7578125,-7.32421875,31.73828125,-18.06640625,0.0
1699110195.9468837,30.76171875,11.71875,203.125,-15.13671875,0.0
1699110195.9508324,-143.06640625,-49.31640625,-164.0625,-57.6171875,0.0
1699110195.9547331,-143.5546875,-82.51953125,-420.41015625,-50.78125,0.0
1699110195.958634,10.25390625,-19.04296875,-111.81640625,-15.625,0.0
1699110195.962535,68.84765625,46.38671875,297.8515625,-5.859375,0.0
1699110195.9664357,-111.81640625,-56.15234375,-50.78125,-28.80859375,0.0
1699110195.9703364,-159.66796875,-140.625,-459.47265625,-45.8984375,0.0
1699110195.9742374,-43.9453125,-105.46875,-431.15234375,-29.78515625,0.0
1699110195.9781382,77.63671875,40.52734375,142.08984375,-4.39453125,0.0
1699110195.982039,-67.87109375,12.6953125,150.390625,-32.71484375,0.0
1699110195.98594,-162.109375,-107.421875,-391.11328125,-54.19921875,0.0
1699110195.9898407,-86.9140625,-71.2890625,-375.0,-41.9921875,0.0
1699110195.9937415,86.42578125,62.01171875,279.296875,-14.6484375,0.0
1699110195.9976811,3.90625,-0.48828125,226.5625,-18.06640625,0.0
1699110196.001582,-140.625,-128.90625,-311.5234375,-39.55078125,0.0
1699110196.0054827,-94.7265625,-83.49609375,-426.7578125,-41.9921875,0.0
1699110196.0093837,77.63671875,56.15234375,108.88671875,-9.765625,0.0
1699110196.0132844,65.91796875,25.87890625,278.80859375,-5.37109375,0.0
1699110196.0171854,-109.86328125,-159.1796875,-372.55859375,-33.203125,0.0
1699110196.0210862,-115.72265625,-136.23046875,-580.078125,-36.1328125,0.0
1699110196.024987,36.1328125,43.45703125,10.25390625,-12.20703125,0.0
1699110196.028888,118.1640625,54.19921875,305.6640625,5.37109375,0.0
1699110196.0327888,-57.12890625,-93.75,-206.0546875,-20.99609375,0.0
1699110196.0366895,-110.83984375,-85.44921875,-444.82421875,-31.73828125,0.0
1699110196.0405905,-2.44140625,19.04296875,-118.65234375,-23.92578125,0.0
1699110196.0445724,132.32421875,51.7578125,282.71484375,4.8828125,0.0
1699110196.0484731,-3.90625,-41.015625,-25.87890625,-13.18359375,0.0
1699110196.052374,-118.1640625,-73.73046875,-366.69921875,-33.69140625,0.0
1699110196.056275,-59.08203125,-33.203125,-316.40625,-21.97265625,0.0
1699110196.0601757,102.5390625,16.6015625,139.16015625,0.9765625,0.0
1699110196.0640767,28.80859375,-39.55078125,17.578125,-11.71875,0.0
1699110196.0679774,-136.23046875,-100.5859375,-464.84375,-34.66796875,0.0
1699110196.0718782,-112.3046875,-50.29296875,-429.19921875,-37.59765625,0.0
1699110196.0757792,58.10546875,17.578125,-20.01953125,-7.8125,0.0
1699110196.07968,74.70703125,-13.18359375,162.109375,4.8828125,0.0
1699110196.083581,-113.76953125,-36.1328125,-82.51953125,-39.55078125,0.0
1699110196.0874817,-140.13671875,-42.96875,-322.75390625,-48.828125,0.0
1699110196.0914655,6.34765625,-21.484375,-164.55078125,-14.16015625,0.0
1699110196.0953662,99.609375,30.2734375,252.9296875,5.37109375,0.0
1699110196.099267,-81.0546875,-28.3203125,27.34375,-32.71484375,0.0
1699110196.103168,-148.92578125,-81.54296875,-354.4921875,-55.17578125,0.0
1699110196.1070688,-43.45703125,-63.4765625,-324.21875,-44.921875,0.0
1699110196.1109698,105.95703125,-4.39453125,137.6953125,-11.71875,0.0
1699110196.1148705,-10.25390625,-44.43359375,31.73828125,-25.87890625,0.0
1699110196.1187713,-132.8125,-89.84375,-402.83203125,-59.08203125,0.0
1699110196.1226723,-83.49609375,-128.90625,-555.17578125,-45.8984375,0.0
1699110196.126573,97.16796875,-13.671875,-63.4765625,-8.30078125,0.0
1699110196.130474,45.8984375,52.734375,264.16015625,-15.625,0.0
1699110196.1343749,-127.44140625,-95.21484375,-291.9921875,-50.29296875,0.0
1699110196.1383495,-111.81640625,-93.75,-473.14453125,-49.8046875,0.0
1699110196.1422503,55.6640625,34.1796875,40.52734375,-20.01953125,0.0
1699110196.1461513,91.796875,49.31640625,304.19921875,-15.13671875,0.0
1699110196.150052,-84.47265625,-81.54296875,-146.97265625,-29.78515625,0.0
1699110196.153953,-115.72265625,-121.58203125,-482.91015625,-26.3671875,0.0
1699110196.1578538,10.7421875,-36.62109375,-208.984375,-14.16015625,0.0
1699110196.1617548,110.83984375,23.4375,213.8671875,0.48828125,0.0
1699110196.1656556,-58.10546875,-79.58984375,-169.43359375,-23.92578125,0.0
1699110196.1695566,-139.6484375,-142.08984375,-571.77734375,-29.78515625,0.0
1699110196.1734574,-44.43359375,-29.78515625,-319.3359375,-11.23046875,0.0
1699110196.1773582,107.421875,84.47265625,260.25390625,2.9296875,0.0
1699110196.1812592,-15.625,-13.18359375,43.45703125,-20.5078125,0.0
1699110196.1852255,-154.78515625,-92.28515625,-448.2421875,-51.26953125,0.0
1699110196.1891263,-108.88671875,-37.59765625,-338.8671875,-48.33984375,0.0
1699110196.1930273,77.1484375,38.57421875,141.6015625,-3.41796875,0.0
1699110196.196928,41.50390625,-3.90625,192.87109375,-1.46484375,0.0
1699110196.2008288,-139.6484375,-102.5390625,-294.43359375,-44.921875,0.0
1699110196.2047298,-142.578125,-113.76953125,-505.859375,-55.17578125,0.0
1699110196.2086306,20.01953125,-13.18359375,-49.8046875,-26.3671875,0.0
1699110196.2125316,79.58984375,-27.34375,87.40234375,-2.44140625,0.0
1699110196.2164323,-103.515625,-111.81640625,-383.7890625,-25.87890625,0.0
1699110196.2203333,-147.94921875,-36.62109375,-364.2578125,-47.8515625,0.0
1699110196.224234,-21.97265625,0.48828125,-94.23828125,-35.64453125,0.0
1699110196.228135,103.02734375,34.66796875,295.8984375,-9.765625,0.0
1699110196.2320917,-53.22265625,-48.33984375,-54.19921875,-40.0390625,0.0
1699110196.2359927,-150.390625,-82.51953125,-384.27734375,-64.94140625,0.0
1699110196.2398934,-68.359375,-51.26953125,-262.20703125,-47.8515625,0.0
1699110196.2437944,99.609375,22.94921875,204.58984375,-16.11328125,0.0
1699110196.2476952,0.0,-7.32421875,223.14453125,-27.34375,0.0
1699110196.2515962,-142.08984375,-110.3515625,-304.19921875,-45.8984375,0.0
1699110196.255497,-99.12109375,-113.28125,-479.98046875,-46.38671875,0.0
1699110196.259398,72.265625,-31.73828125,-125.0,-23.92578125,0.0
1699110196.2632987,49.31640625,40.52734375,206.0546875,-23.92578125,0.0
1699110196.2671998,-127.9296875,-37.59765625,-50.78125,-55.17578125,0.0
1699110196.2711005,-122.0703125,-99.12109375,-445.3125,-59.5703125,0.0
1699110196.2750015,35.64453125,-0.9765625,-129.8828125,-28.3203125,0.0
1699110196.2789617,101.07421875,64.94140625,340.33203125,-2.9296875,0.0
1699110196.2828627,-78.125,-39.0625,-7.32421875,-35.64453125,0.0
1699110196.2867634,-123.53515625,-119.140625,-424.8046875,-59.5703125,0.0
1699110196.2906644,-10.25390625,-46.38671875,-254.8828125,-42.48046875,0.0
1699110196.2945652,106.4453125,65.4296875,267.578125,-14.6484375,0.0
1699110196.2984662,-41.50390625,-47.8515625,-36.1328125,-34.1796875,0.0
1699110196.302367,-137.6953125,-176.7578125,-605.46875,-53.7109375,0.0
1699110196.306268,-62.98828125,-94.7265625,-482.91015625,-38.0859375,0.0
1699110196.3101687,105.46875,102.5390625,243.1640625,-15.13671875,0.0
1699110196.3140697,15.13671875,13.18359375,197.75390625,-29.296875,0.0
1699110196.3179705,-140.625,-92.28515625,-312.5,-50.29296875,0.0
1699110196.3218715,-112.3046875,-46.38671875,-350.09765625,-41.015625,0.0
1699110196.3258228,55.17578125,52.734375,159.1796875,-5.859375,0.0
1699110196.3297236,62.01171875,22.4609375,205.56640625,-6.34765625,0.0
1699110196.3336246,-119.62890625,-94.7265625,-288.57421875,-42.96875,0.0
1699110196.3375256,-139.16015625,-62.5,-374.51171875,-44.43359375,0.0
1699110196.3414264,-1.46484375,6.34765625,-36.62109375,-17.578125,0.0
1699110196.3453274,86.42578125,-12.20703125,178.7109375,-0.48828125,0.0
1699110196.3492281,-78.125,-132.32421875,-293.45703125,-26.85546875,0.0
1699110196.3531291,-152.83203125,-111.81640625,-511.23046875,-53.22265625,0.0
1699110196.35703,-48.33984375,-12.6953125,-274.90234375,-42.48046875,0.0
1699110196.360931,106.93359375,41.015625,158.203125,-4.39453125,0.0
1699110196.3648317,-23.92578125,-14.16015625,79.58984375,-19.53125,0.0
1699110196.3687327,-151.85546875,-51.7578125,-260.7421875,-48.828125,0.0
1699110196.3726757,-81.0546875,-26.85546875,-269.53125,-40.0390625,0.0
1699110196.3765767,91.796875,35.15625,160.64453125,-14.6484375,0.0
1699110196.3804777,22.4609375,-2.9296875,156.73828125,-27.34375,0.0
1699110196.3843784,-133.30078125,-62.5,-218.75,-52.734375,0.0
1699110196.3882794,-117.1875,-62.98828125,-368.1640625,-46.875,0.0
1699110196.3921802,49.8046875,-55.6640625,-168.9453125,-13.671875,0.0
1699110196.3960812,72.75390625,-15.13671875,140.13671875,-6.8359375,0.0
1699110196.399982,-118.1640625,-38.57421875,-82.03125,-45.8984375,0.0
1699110196.403883,-148.4375,-98.6328125,-447.265625,-57.6171875,0.0
1699110196.4077837,-1.46484375,-41.9921875,-316.40625,-25.390625,0.0
1699110196.4116848,101.07421875,64.453125,212.40234375,-2.44140625,0.0
1699110196.4155858,-75.1953125,-5.37109375,62.98828125,-32.2265625,0.0
1699110196.4195688,-147.4609375,-99.12109375,-410.64453125,-42.48046875,0.0
1699110196.4234698,-46.875,-47.36328125,-269.04296875,-29.296875,0.0
1699110196.4273705,109.86328125,63.4765625,272.94921875,-7.8125,0.0
1699110196.4312716,-6.34765625,-6.8359375,184.08203125,-15.625,0.0
1699110196.4351726,-134.27734375,-102.05078125,-299.8046875,-40.0390625,0.0
1699110196.4390733,-79.1015625,-98.6328125,-479.00390625,-36.1328125,0.0
1699110196.4429743,94.7265625,12.20703125,53.22265625,-8.7890625,0.0
1699110196.446875,45.8984375,3.41796875,119.140625,-3.41796875,0.0
1699110196.450776,-119.140625,-118.1640625,-458.0078125,-32.2265625,0.0
1699110196.454677,-109.86328125,-107.91015625,-569.3359375,-41.9921875,0.0
1699110196.4585779,44.43359375,56.15234375,37.59765625,-8.30078125,0.0
1699110196.4624789,88.8671875,46.875,226.5625,3.90625,0.0
1699110196.4664528,-85.9375,-92.7734375,-331.54296875,-21.484375,0.0
1699110196.4703538,-123.046875,-71.77734375,-478.02734375,-40.52734375,0.0
1699110196.4742546,8.7890625,20.99609375,-58.10546875,-21.484375,0.0
1699110196.4781556,122.0703125,51.7578125,340.33203125,4.8828125,0.0
1699110196.4820566,-46.875,-64.94140625,-62.5,-27.34375,0.0
1699110196.4859574,-134.765625,-128.90625,-508.30078125,-36.1328125,0.0
1699110196.4898584,-45.41015625,-38.57421875,-337.890625,-15.625,0.0
1699110196.4937592,117.1875,94.23828125,308.59375,5.859375,0.0
1699110196.4976602,11.71875,-71.2890625,-72.265625,-3.90625,0.0
1699110196.5015612,-132.32421875,-141.11328125,-604.98046875,-38.57421875,0.0
1699110196.505462,-87.890625,4.39453125,-311.5234375,-42.48046875,0.0
1699110196.509363,87.890625,49.8046875,116.69921875,-7.32421875,0.0
1699110196.513341,49.31640625,-2.44140625,186.03515625,-16.11328125,0.0
1699110196.517242,-132.8125,-88.37890625,-271.484375,-45.8984375,0.0
1699110196.5211427,-129.8828125,-92.28515625,-480.95703125,-39.55078125,0.0
1699110196.5250437,24.90234375,-7.8125,-56.15234375,-19.53125,0.0
1699110196.5289447,71.77734375,7.32421875,186.03515625,-16.11328125,0.0
1699110196.5328455,-106.4453125,-97.65625,-280.2734375,-38.0859375,0.0
1699110196.5367465,-145.01953125,-111.81640625,-527.83203125,-49.8046875,0.0
1699110196.5406473,-21.97265625,-44.921875,-298.33984375,-34.1796875,0.0
1699110196.5445483,97.16796875,2.44140625,176.26953125,-9.27734375,0.0
1699110196.5484493,-57.12890625,-0.48828125,76.66015625,-35.64453125,0.0
1699110196.55235,-149.4140625,-35.15625,-278.3203125,-48.828125,0.0
1699110196.556251,-68.359375,-62.98828125,-392.578125,-34.66796875,0.0
1699110196.5602198,102.5390625,35.64453125,119.62890625,-12.6953125,0.0
1699110196.5641205,1.46484375,21.97265625,249.0234375,-35.64453125,0.0
1699110196.5680215,-155.2734375,-81.0546875,-246.58203125,-62.98828125,0.0
1699110196.5719225,-106.93359375,-85.9375,-374.0234375,-45.41015625,0.0
1699110196.5758233,70.3125,1.953125,49.31640625,-9.765625,0.0
1699110196.5797243,51.26953125,2.44140625,158.203125,-10.7421875,0.0
1699110196.5836253,-125.48828125,-90.33203125,-284.66796875,-50.29296875,0.0
1699110196.587526,-130.859375,-153.80859375,-621.09375,-49.8046875,0.0
1699110196.591427,24.4140625,-46.875,-227.05078125,-14.6484375,0.0
1699110196.595328,98.14453125,78.125,344.7265625,-10.25390625,0.0
1699110196.5992289,-77.1484375,-56.15234375,-74.70703125,-38.57421875,0.0
1699110196.6031299,-129.8828125,-98.14453125,-457.03125,-42.96875,0.0
1699110196.6070907,-16.11328125,-2.9296875,-138.18359375,-31.73828125,0.0
1699110196.6109915,128.90625,69.3359375,338.37890625,-3.90625,0.0
1699110196.6148925,-8.7890625,-44.43359375,-2.9296875,-17.08984375,0.0
1699110196.6187935,-121.58203125,-106.93359375,-405.76171875,-39.55078125,0.0
1699110196.6226943,-54.6875,-50.29296875,-354.4921875,-18.06640625,0.0
1699110196.6265953,104.4921875,15.625,119.140625,6.8359375,0.0
1699110196.6304963,22.4609375,-47.8515625,0.9765625,-17.578125,0.0
1699110196.634397,-124.51171875,-166.015625,-575.68359375,-39.55078125,0.0
1699110196.638298,-99.609375,-59.5703125,-437.98828125,-30.2734375,0.0
1699110196.642199,71.2890625,91.30859375,132.8125,5.37109375,0.0
1699110196.6461,74.21875,19.04296875,183.59375,11.23046875,0.0
1699110196.6500008,-119.62890625,-96.19140625,-341.30859375,-32.71484375,0.0
1699110196.653952,-136.23046875,-59.5703125,-430.17578125,-41.50390625,0.0
1699110196.6578526,6.8359375,15.625,-30.2734375,-25.87890625,0.0
1699110196.6617537,91.796875,14.16015625,218.75,-6.8359375,0.0
1699110196.6656547,-83.49609375,-64.94140625,-124.0234375,-35.64453125,0.0
1699110196.6695554,-148.4375,-84.47265625,-401.85546875,-60.05859375,0.0
1699110196.6734564,-41.50390625,-46.38671875,-290.0390625,-30.76171875,0.0
1699110196.6773574,102.05078125,-35.64453125,48.828125,2.44140625,0.0
1699110196.6812582,-28.80859375,-92.7734375,-225.09765625,-16.6015625,0.0
1699110196.6851592,-154.296875,-42.48046875,-364.74609375,-45.41015625,0.0
1699110196.6890602,-103.02734375,-47.36328125,-342.28515625,-44.43359375,0.0
1699110196.6929612,76.171875,11.23046875,116.2109375,-20.01953125,0.0
1699110196.696862,24.4140625,15.625,246.09375,-18.5546875,0.0
1699110196.7008185,-137.20703125,-61.03515625,-208.984375,-43.9453125,0.0
1699110196.7047195,-119.62890625,-85.44921875,-421.875,-52.734375,0.0
1699110196.7086203,43.9453125,-16.6015625,-40.52734375,-25.87890625,0.0
1699110196.7125213,64.94140625,35.15625,293.45703125,-18.5546875,0.0
1699110196.7164223,-110.3515625,-68.359375,-125.48828125,-49.31640625,0.0
1699110196.720323,-132.8125,-127.9296875,-478.02734375,-49.31640625,0.0
1699110196.724224,0.0,-83.49609375,-382.32421875,-21.97265625,0.0
1699110196.728125,95.703125,41.015625,149.4140625,-13.18359375,0.0
1699110196.732026,-62.5,11.71875,117.1875,-41.50390625,0.0
1699110196.7359269,-136.71875,-95.703125,-426.26953125,-54.19921875,0.0
1699110196.7398279,-43.9453125,-47.8515625,-316.40625,-31.73828125,0.0
1699110196.7437289,97.65625,62.98828125,240.72265625,-6.34765625,0.0
1699110196.7476737,-25.87890625,-46.875,-63.96484375,-29.296875,0.0
1699110196.7515748,-128.41796875,-143.06640625,-482.421875,-41.50390625,0.0
1699110196.7554758,-71.77734375,-72.265625,-404.296875,-26.85546875,0.0
1699110196.7593768,96.19140625,57.12890625,182.12890625,-7.8125,0.0
1699110196.7632775,46.38671875,0.0,194.3359375,-23.4375,0.0
1699110196.7671785,-129.39453125,-174.8046875,-463.8671875,-44.43359375,0.0
1699110196.7710795,-124.51171875,-148.92578125,-589.35546875,-41.50390625,0.0
1699110196.7749805,37.109375,31.25,-10.25390625,-18.5546875,0.0
1699110196.7788813,75.1953125,44.921875,279.78515625,-2.9296875,0.0
1699110196.7827823,-101.07421875,-115.234375,-258.7890625,-29.78515625,0.0
1699110196.7866833,-128.41796875,-101.5625,-482.421875,-42.96875,0.0
1699110196.790584,-7.8125,22.4609375,-61.03515625,-21.97265625,0.0
1699110196.79457,106.4453125,45.8984375,303.7109375,2.9296875,0.0
1699110196.7984707,-47.36328125,-61.03515625,-97.65625,-23.92578125,0.0
1699110196.8023717,-138.671875,-76.66015625,-408.203125,-41.50390625,0.0
1699110196.8062727,-52.734375,-37.59765625,-318.84765625,-21.484375,0.0
1699110196.8101737,112.3046875,22.94921875,166.50390625,-4.8828125,0.0
1699110196.8140748,2.9296875,-41.50390625,12.6953125,-19.53125,0.0
1699110196.8179755,-135.7421875,-112.3046875,-471.6796875,-43.9453125,0.0
1699110196.8218765,-94.23828125,-54.19921875,-402.34375,-56.15234375,0.0
1699110196.8257775,71.2890625,23.92578125,79.58984375,-23.4375,0.0
1699110196.8296785,43.45703125,-15.13671875,137.20703125,-18.5546875,0.0
1699110196.8335793,-130.859375,-41.015625,-172.8515625,-53.7109375,0.0
1699110196.8374803,-128.41796875,-38.0859375,-306.640625,-47.8515625,0.0
1699110196.8414567,31.25,-13.18359375,-83.49609375,-12.6953125,0.0
1699110196.8453577,90.33203125,21.97265625,228.515625,-2.44140625,0.0
1699110196.8492587,-92.7734375,-38.0859375,-25.87890625,-39.0625,0.0
1699110196.8531597,-139.6484375,-74.21875,-332.51953125,-52.734375,0.0
1699110196.8570604,-18.06640625,-49.31640625,-289.0625,-22.4609375,0.0
1699110196.8609614,108.3984375,10.7421875,144.53125,-0.48828125,0.0
1699110196.8648624,-44.43359375,-44.43359375,-68.84765625,-27.83203125,0.0
1699110196.8687634,-149.4140625,-95.21484375,-480.46875,-62.5,0.0
1699110196.8726645,-78.125,-111.81640625,-520.99609375,-51.26953125,0.0
1699110196.8765652,92.28515625,0.0,-28.80859375,-6.34765625,0.0
1699110196.8804662,2.44140625,50.29296875,232.91015625,-16.6015625,0.0
1699110196.8843672,-150.390625,-77.1484375,-270.99609375,-47.8515625,0.0
1699110196.888335,-111.328125,-75.1953125,-427.24609375,-42.96875,0.0
1699110196.892236,60.546875,44.43359375,126.953125,-8.30078125,0.0
1699110196.896137,49.8046875,40.52734375,290.0390625,-12.6953125,0.0
1699110196.900038,-133.30078125,-94.23828125,-221.19140625,-50.29296875,0.0
1699110196.903939,-138.18359375,-126.46484375,-495.60546875,-46.875,0.0
1699110196.90784,16.6015625,-24.4140625,-116.2109375,-19.53125,0.0
1699110196.9117408,90.33203125,29.296875,266.6015625,-7.8125,0.0
1699110196.9156418,-90.8203125,-78.61328125,-207.03125,-29.296875,0.0
1699110196.9195428,-148.4375,-146.484375,-605.95703125,-39.55078125,0.0
1699110196.9234438,-33.69140625,-10.7421875,-240.72265625,-24.90234375,0.0
1699110196.9273448,110.3515625,114.2578125,359.375,0.9765625,0.0
1699110196.9312456,-27.83203125,-28.80859375,9.765625,-20.5078125,0.0
1699110196.9352167,-134.27734375,-112.79296875,-500.9765625,-41.015625,0.0
1699110196.9391177,-58.59375,-32.71484375,-304.6875,-37.59765625,0.0
1699110196.9430187,110.83984375,71.2890625,250.48828125,-13.671875,0.0
1699110196.9469197,31.25,-12.20703125,105.46875,-23.4375,0.0
1699110196.9508207,-133.7890625,-113.28125,-406.25,-55.6640625,0.0
1699110196.9547217,-109.86328125,-97.16796875,-507.8125,-54.6875,0.0
1699110196.9586225,58.10546875,12.6953125,-3.41796875,-20.99609375,0.0
1699110196.9625235,73.73046875,-23.92578125,53.22265625,-1.46484375,0.0
1699110196.9664245,-107.91015625,-114.2578125,-458.0078125,-31.25,0.0
1699110196.9703255,-124.51171875,-13.671875,-367.1875,-42.48046875,0.0
1699110196.9742265,-1.953125,14.16015625,-66.89453125,-29.296875,0.0
1699110196.9781275,85.44921875,3.41796875,203.61328125,-10.25390625,0.0
1699110196.9820905,-69.3359375,-54.19921875,-94.23828125,-38.0859375,0.0
1699110196.9859915,-144.53125,-57.12890625,-353.02734375,-69.3359375,0.0
1699110196.9898922,-52.24609375,-36.1328125,-235.83984375,-51.26953125,0.0
1699110196.9937932,101.07421875,24.90234375,220.703125,-15.625,0.0
1699110196.9976943,-19.04296875,-21.97265625,90.8203125,-38.57421875,0.0
1699110197.0015953,-154.78515625,-116.69921875,-394.04296875,-68.84765625,0.0
1699110197.0054963,-95.21484375,-102.05078125,-483.88671875,-46.875,0.0
1699110197.0093973,87.40234375,-5.37109375,-98.6328125,-7.32421875,0.0
1699110197.0132983,20.5078125,30.76171875,145.99609375,-28.80859375,0.0
1699110197.017199,-152.34375,-44.921875,-168.45703125,-60.05859375,0.0
1699110197.0211,-129.8828125,-81.0546875,-450.1953125,-47.36328125,0.0
1699110197.025001,30.76171875,5.37109375,-54.19921875,-28.80859375,0.0
1699110197.028955,65.91796875,48.828125,331.54296875,-25.87890625,0.0
1699110197.032856,-106.4453125,-73.2421875,-77.63671875,-41.9921875,0.0
1699110197.036757,-141.11328125,-136.71875,-448.2421875,-54.19921875,0.0
1699110197.040658,-17.578125,-29.296875,-118.1640625,-38.0859375,0.0
1699110197.044559,104.98046875,56.640625,340.33203125,-5.859375,0.0
1699110197.04846,-52.24609375,-71.77734375,-68.84765625,-27.34375,0.0
1699110197.0523608,-146.484375,-192.87109375,-618.1640625,-50.78125,0.0
1699110197.0562618,-52.24609375,-101.5625,-416.50390625,-34.66796875,0.0
1699110197.0601628,94.7265625,101.5625,315.91796875,-15.625,0.0
1699110197.0640638,-17.578125,0.0,165.52734375,-38.57421875,0.0
1699110197.0679648,-139.16015625,-102.5390625,-349.12109375,-44.921875,0.0
1699110197.0718658,-83.984375,-44.43359375,-383.30078125,-39.0625,0.0
1699110197.0758111,83.984375,55.17578125,158.203125,-21.97265625,0.0
1699110197.0797122,41.015625,5.859375,199.21875,-11.23046875,0.0
1699110197.083613,-125.9765625,-104.4921875,-312.01171875,-42.96875,0.0
1699110197.087514,-119.62890625,-64.453125,-407.2265625,-56.15234375,0.0
1699110197.091415,36.62109375,16.6015625,-4.39453125,-20.5078125,0.0
1699110197.095316,85.9375,-5.37109375,175.78125,-3.90625,0.0
1699110197.099217,-88.37890625,-140.625,-349.609375,-25.390625,0.0
1699110197.103118,-131.34765625,-111.81640625,-543.9453125,-38.57421875,0.0
1699110197.107019,-18.06640625,28.80859375,-103.515625,-31.25,0.0
1699110197.11092,99.609375,59.08203125,287.59765625,-5.859375,0.0
1699110197.114821,-52.734375,-39.55078125,-20.01953125,-27.83203125,0.0
1699110197.118722,-139.16015625,-52.734375,-311.5234375,-47.8515625,0.0
1699110197.1226697,-54.6875,-24.4140625,-238.28125,-34.1796875,0.0
1699110197.1265707,102.5390625,15.13671875,181.15234375,-0.9765625,0.0
1699110197.1304715,9.27734375,-24.90234375,65.4296875,-5.859375,0.0
1699110197.1343725,-136.71875,-60.05859375,-296.38671875,-41.50390625,0.0
1699110197.1382735,-106.93359375,-38.57421875,-354.00390625,-47.36328125,0.0
1699110197.1421745,60.546875,-34.1796875,-95.703125,-14.16015625,0.0
1699110197.1460755,44.43359375,-25.390625,104.4921875,-11.71875,0.0
1699110197.1499765,-127.44140625,-46.875,-213.37890625,-42.96875,0.0
1699110197.1538775,-131.34765625,-96.6796875,-503.90625,-44.43359375,0.0
1699110197.1577785,18.5546875,-31.25,-255.37109375,-24.90234375,0.0
1699110197.1616795,84.47265625,52.24609375,199.70703125,-17.08984375,0.0
1699110197.1655805,-85.9375,-11.23046875,36.62109375,-30.76171875,0.0
1699110197.169581,-132.32421875,-83.984375,-398.4375,-37.109375,0.0
1699110197.173482,-22.94921875,-27.34375,-239.2578125,-28.3203125,0.0
1699110197.177383,124.51171875,76.171875,291.50390625,-1.953125,0.0
1699110197.181284,-16.11328125,-8.7890625,106.4453125,-27.83203125,0.0
1699110197.185185,-125.0,-109.375,-384.27734375,-40.52734375,0.0
1699110197.189086,-50.78125,-96.6796875,-455.56640625,-22.4609375,0.0
1699110197.192987,109.375,21.484375,117.1875,-3.90625,0.0
1699110197.196888,28.3203125,-5.37109375,85.44921875,-13.18359375,0.0
1699110197.200789,-127.9296875,-121.09375,-474.609375,-29.78515625,0.0
1699110197.20469,-100.09765625,-103.515625,-521.97265625,-27.83203125,0.0
1699110197.208591,65.91796875,37.109375,20.5078125,-8.30078125,0.0
1699110197.212492,67.3828125,43.9453125,254.39453125,4.39453125,0.0
1699110197.216472,-112.3046875,-74.70703125,-220.703125,-24.90234375,0.0
1699110197.220373,-126.953125,-88.37890625,-481.93359375,-38.57421875,0.0
1699110197.224274,23.4375,19.53125,-25.390625,-4.39453125,0.0
1699110197.228175,104.98046875,54.6875,331.54296875,13.671875,0.0
1699110197.232076,-70.3125,-76.171875,-117.1875,-20.5078125,0.0
1699110197.235977,-137.6953125,-135.7421875,-534.66796875,-37.59765625,0.0
1699110197.239878,-34.1796875,-26.3671875,-246.58203125,-27.34375,0.0
1699110197.243779,112.79296875,78.125,336.42578125,-1.46484375,0.0
1699110197.24768,-17.578125,-87.890625,-109.375,-18.5546875,0.0
1699110197.2515807,-137.20703125,-135.25390625,-572.75390625,-40.52734375,0.0
1699110197.2554817,-86.9140625,4.8828125,-249.0234375,-24.90234375,0.0
1699110197.2593827,84.9609375,62.01171875,209.47265625,2.9296875,0.0
1699110197.2633529,26.85546875,-0.9765625,105.46875,-13.18359375,0.0
1699110197.2672539,-145.5078125,-85.9375,-363.76953125,-51.7578125,0.0
1699110197.2711549,-132.32421875,-53.22265625,-396.97265625,-54.19921875,0.0
1699110197.2750561,33.203125,25.390625,33.203125,-30.76171875,0.0
1699110197.2789571,59.08203125,-0.9765625,161.1328125,-23.4375,0.0
1699110197.2828581,-117.67578125,-93.26171875,-302.734375,-48.828125,0.0
1699110197.2867591,-144.04296875,-91.30859375,-490.234375,-62.5,0.0
1699110197.2906601,-6.8359375,-25.87890625,-212.40234375,-42.48046875,0.0
1699110197.2945611,97.16796875,10.7421875,183.59375,-21.484375,0.0
1699110197.2984622,-73.73046875,-11.23046875,5.37109375,-63.4765625,0.0
1699110197.3023632,-147.94921875,-40.0390625,-319.3359375,-63.96484375,0.0
1699110197.3062642,-41.9921875,-33.69140625,-317.3828125,-34.1796875,0.0
1699110197.310225,111.328125,46.38671875,179.6875,-6.8359375,0.0
1699110197.314126,-4.39453125,7.32421875,209.9609375,-24.4140625,0.0
1699110197.318027,-129.8828125,-68.84765625,-222.65625,-48.33984375,0.0
1699110197.321928,-80.56640625,-81.54296875,-378.90625,-28.80859375,0.0
1699110197.325829,89.84375,4.8828125,65.4296875,-5.37109375,0.0
1699110197.32973,59.08203125,5.859375,161.62109375,-3.90625,0.0
1699110197.333631,-110.83984375,-71.77734375,-322.265625,-36.62109375,0.0
1699110197.337532,-108.3984375,-127.9296875,-576.66015625,-42.48046875,0.0
1699110197.3414333,52.24609375,-25.87890625,-167.96875,-4.39453125,0.0
1699110197.3453343,95.21484375,110.3515625,332.51953125,-3.90625,0.0
1699110197.3492353,-81.54296875,-34.66796875,-91.796875,-35.64453125,0.0
1699110197.3531363,-128.90625,-99.609375,-448.73046875,-43.9453125,0.0
1699110197.3571007,0.48828125,5.859375,-69.3359375,-5.37109375,0.0
1699110197.3610017,115.234375,77.63671875,377.9296875,16.11328125,0.0
1699110197.3649027,-47.8515625,-45.8984375,6.8359375,-26.85546875,0.0
1699110197.3688037,-133.7890625,-106.93359375,-398.4375,-35.64453125,0.0
1699110197.372705,-44.43359375,-20.5078125,-225.5859375,-13.671875,0.0
1699110197.376606,100.09765625,28.3203125,225.09765625,10.25390625,0.0
1699110197.380507,-16.11328125,-55.6640625,-51.7578125,-8.7890625,0.0
1699110197.384408,-140.13671875,-153.3203125,-560.05859375,-38.0859375,0.0
1699110197.388309,-103.02734375,-68.84765625,-426.7578125,-36.1328125,0.0
1699110197.39221,70.80078125,93.75,194.82421875,-7.32421875,0.0
1699110197.396111,54.19921875,6.34765625,169.43359375,-9.765625,0.0
1699110197.400012,-126.46484375,-119.62890625,-373.046875,-39.55078125,0.0
1699110197.4039805,-143.5546875,-61.5234375,-395.01953125,-54.6875,0.0
1699110197.4078815,11.71875,24.4140625,34.1796875,-33.69140625,0.0
1699110197.4117825,85.44921875,8.7890625,221.19140625,-15.13671875,0.0
1699110197.4156835,-94.23828125,-86.9140625,-213.37890625,-45.8984375,0.0
1699110197.4195845,-126.953125,-88.8671875,-424.31640625,-51.26953125,0.0
1699110197.4234855,0.48828125,-35.15625,-220.21484375,-24.4140625,0.0
1699110197.4273865,118.1640625,-37.59765625,46.38671875,-2.44140625,0.0
1699110197.4312875,-32.2265625,-94.23828125,-242.1875,-29.78515625,0.0
1699110197.4351885,-128.41796875,-36.62109375,-354.98046875,-43.45703125,0.0
1699110197.4390895,-50.29296875,-39.55078125,-329.1015625,-32.71484375,0.0
1699110197.4429905,115.72265625,30.2734375,170.8984375,-8.7890625,0.0
1699110197.4468915,22.4609375,15.13671875,235.3515625,-18.06640625,0.0
1699110197.4508395,-131.8359375,-64.94140625,-188.4765625,-52.734375,0.0
1699110197.4547405,-96.6796875,-78.61328125,-383.30078125,-44.43359375,0.0
1699110197.4586415,73.2421875,-5.37109375,-22.94921875,-6.34765625,0.0
1699110197.4625425,60.546875,35.15625,263.671875,-8.30078125,0.0
1699110197.4664435,-119.140625,-73.2421875,-191.40625,-49.8046875,0.0
1699110197.4703445,-122.0703125,-127.9296875,-485.83984375,-50.29296875,0.0
1699110197.4742455,20.99609375,-94.7265625,-369.140625,-3.41796875,0.0
1699110197.4781466,87.890625,20.99609375,120.1171875,7.32421875,0.0
1699110197.4820476,-86.9140625,2.44140625,64.453125,-36.1328125,0.0
1699110197.4859486,-143.5546875,-92.7734375,-453.61328125,-50.78125,0.0
1699110197.4898496,-40.52734375,-38.0859375,-304.6875,-35.64453125,0.0
1699110197.4937508,98.14453125,71.2890625,322.75390625,-16.6015625,0.0
1699110197.4976895,-35.15625,-41.50390625,-22.94921875,-39.55078125,0.0
1699110197.5015905,-146.484375,-119.140625,-524.90234375,-57.6171875,0.0
1699110197.5054915,-85.44921875,-42.96875,-356.4453125,-48.828125,0.0
1699110197.5093925,87.890625,60.546875,234.375,-21.97265625,0.0
1699110197.5132935,25.87890625,-2.9296875,180.6640625,-26.85546875,0.0
1699110197.5171945,-137.6953125,-159.1796875,-468.75,-58.59375,0.0
1699110197.5210958,-117.67578125,-104.4921875,-534.1796875,-51.26953125,0.0
1699110197.5249968,54.19921875,76.171875,106.4453125,-20.01953125,0.0
1699110197.5288978,63.96484375,54.19921875,271.97265625,-20.99609375,0.0
1699110197.5327988,-124.51171875,-104.98046875,-270.01953125,-52.24609375,0.0
1699110197.5366998,-140.13671875,-83.984375,-445.80078125,-60.546875,0.0
1699110197.5406008,5.37109375,39.55078125,-1.953125,-35.15625,0.0
1699110197.5445795,95.703125,41.015625,283.203125,-7.32421875,0.0
1699110197.5484805,-72.265625,-66.89453125,-162.109375,-30.2734375,0.0
1699110197.5523815,-128.90625,-88.37890625,-455.078125,-37.109375,0.0
1699110197.5562825,-25.87890625,-30.2734375,-298.33984375,-15.13671875,0.0
1699110197.5601838,111.328125,39.55078125,211.9140625,-6.34765625,0.0
1699110197.5640848,-16.6015625,-63.4765625,-64.453125,-25.390625,0.0
1699110197.5679858,-132.32421875,-115.234375,-505.859375,-42.48046875,0.0
1699110197.5718868,-63.4765625,-37.59765625,-381.34765625,-41.9921875,0.0
1699110197.5757878,107.91015625,42.96875,128.41796875,-9.765625,0.0
1699110197.5796888,46.875,-17.08984375,70.3125,-6.8359375,0.0
1699110197.5835898,-118.65234375,-41.9921875,-295.41015625,-33.203125,0.0
1699110197.587491,-105.95703125,-30.76171875,-347.16796875,-30.76171875,0.0
1699110197.5914717,55.17578125,-8.30078125,-57.6171875,-2.9296875,0.0
1699110197.5953727,82.03125,13.671875,190.4296875,2.44140625,0.0
1699110197.5992737,-98.14453125,-34.66796875,-96.19140625,-28.3203125,0.0
1699110197.6031747,-119.62890625,-66.40625,-360.83984375,-29.296875,0.0
1699110197.6070757,13.18359375,-43.9453125,-239.2578125,-2.9296875,0.0
1699110197.610977,117.1875,-0.9765625,187.01171875,7.32421875,0.0
1699110197.614878,-47.8515625,-59.08203125,-70.3125,-20.99609375,0.0
1699110197.618779,-132.8125,-98.14453125,-476.07421875,-34.66796875,0.0
1699110197.62268,-47.8515625,-104.00390625,-476.07421875,-23.92578125,0.0
1699110197.626581,105.95703125,-4.8828125,-6.34765625,0.9765625,0.0
1699110197.630482,-10.7421875,30.2734375,205.56640625,-28.3203125,0.0
1699110197.6343832,-146.97265625,-71.2890625,-277.83203125,-51.26953125,0.0
1699110197.6383555,-98.14453125,-63.4765625,-422.8515625,-33.203125,0.0
1699110197.6422567,75.1953125,61.5234375,178.22265625,-5.37109375,0.0
1699110197.6461577,36.62109375,28.80859375,243.1640625,-15.13671875,0.0
1699110197.6500587,-133.30078125,-110.3515625,-337.40234375,-49.31640625,0.0
