time,TP9,AF7,AF8,TP10,Right AUX
1699110765.89137,49.31640625,43.9453125,-282.71484375,-6.34765625,0.0
1699110765.8952706,149.90234375,223.14453125,249.51171875,13.18359375,0.0
1699110765.8991709,-31.25,-88.8671875,-351.5625,-18.06640625,0.0
1699110765.9030714,-110.3515625,-233.88671875,-719.23828125,-32.2265625,0.0
1699110765.906972,-9.765625,-76.171875,-503.41796875,-14.6484375,0.0
1699110765.9108725,150.87890625,129.39453125,39.55078125,12.6953125,0.0
1699110765.9147727,14.6484375,-71.77734375,-314.94140625,-0.48828125,0.0
1699110765.9186733,-124.0234375,-340.33203125,-864.2578125,-25.390625,0.0
1699110765.9225738,-71.77734375,-76.66015625,-599.12109375,-30.2734375,0.0
1699110765.9264743,104.00390625,212.40234375,36.1328125,-4.8828125,0.0
1699110765.9303746,58.10546875,38.0859375,-63.4765625,-5.37109375,0.0
1699110765.9342752,-112.79296875,-152.83203125,-563.4765625,-41.015625,0.0
1699110765.9382224,-108.88671875,-100.09765625,-624.0234375,-49.31640625,0.0
1699110765.942123,61.03515625,104.00390625,-158.203125,-26.85546875,0.0
1699110765.9460235,99.12109375,71.77734375,75.1953125,-14.16015625,0.0
1699110765.9499238,-98.6328125,-146.484375,-472.16796875,-41.50390625,0.0
1699110765.9538243,-135.25390625,-175.78125,-718.26171875,-51.26953125,0.0
1699110765.9577248,3.90625,-48.33984375,-413.0859375,-33.203125,0.0
1699110765.9616253,123.046875,65.4296875,15.13671875,-7.8125,0.0
1699110765.9655256,-51.26953125,-99.609375,-417.48046875,-31.73828125,0.0
1699110765.9694262,-147.94921875,-98.14453125,-633.30078125,-56.640625,0.0
1699110765.9733267,-54.6875,-25.390625,-474.609375,-34.66796875,0.0
1699110765.9772272,109.86328125,72.265625,-31.25,-3.90625,0.0
1699110765.9811275,-6.34765625,0.0,-104.98046875,-29.296875,0.0
1699110765.9851134,-149.90234375,-163.57421875,-597.65625,-60.05859375,0.0
1699110765.989014,-106.93359375,-187.01171875,-694.3359375,-55.6640625,0.0
1699110765.9929142,77.63671875,67.3828125,-161.62109375,-19.53125,0.0
1699110765.9968147,56.15234375,100.09765625,75.68359375,-20.01953125,0.0
1699110766.0007153,-122.0703125,-147.4609375,-460.44921875,-49.8046875,0.0
1699110766.0046158,-130.37109375,-269.53125,-743.1640625,-63.4765625,0.0
1699110766.0085163,27.34375,-158.69140625,-477.05078125,-36.1328125,0.0
1699110766.0124166,101.07421875,127.44140625,111.328125,-11.71875,0.0
1699110766.0163171,-95.703125,-39.55078125,-297.8515625,-41.015625,0.0
1699110766.0202177,-153.3203125,-237.3046875,-744.62890625,-56.15234375,0.0
1699110766.0241182,-28.3203125,-63.4765625,-393.06640625,-39.55078125,0.0
1699110766.0280185,106.93359375,188.96484375,250.9765625,-15.13671875,0.0
1699110766.0319605,-47.8515625,-29.78515625,-137.20703125,-34.1796875,0.0
1699110766.035861,-161.62109375,-248.53515625,-697.265625,-58.10546875,0.0
1699110766.0397615,-83.984375,-122.55859375,-533.69140625,-47.36328125,0.0
1699110766.0436618,99.609375,125.48828125,89.84375,-10.25390625,0.0
1699110766.0475624,6.8359375,-51.7578125,-146.484375,-18.5546875,0.0
1699110766.051463,-147.94921875,-279.78515625,-683.59375,-44.43359375,0.0
1699110766.0553634,-111.328125,-196.77734375,-693.359375,-37.59765625,0.0
1699110766.059264,62.98828125,106.93359375,-125.48828125,-18.5546875,0.0
1699110766.0631642,69.3359375,129.39453125,189.94140625,-19.04296875,0.0
1699110766.0670648,-116.69921875,-261.71875,-569.82421875,-40.0390625,0.0
1699110766.0709653,-143.5546875,-245.60546875,-762.20703125,-45.8984375,0.0
1699110766.0748658,15.13671875,113.76953125,-168.9453125,-21.97265625,0.0
1699110766.0788465,110.3515625,148.92578125,196.77734375,-5.37109375,0.0
1699110766.082747,-82.03125,-174.8046875,-407.71484375,-31.73828125,0.0
1699110766.0866475,-150.87890625,-197.265625,-709.47265625,-44.921875,0.0
1699110766.090548,-40.0390625,-10.25390625,-374.51171875,-28.3203125,0.0
1699110766.0944483,110.83984375,116.69921875,144.53125,-0.9765625,0.0
1699110766.0983489,-35.15625,-147.94921875,-344.7265625,-24.4140625,0.0
1699110766.1022494,-161.1328125,-252.44140625,-761.23046875,-54.19921875,0.0
1699110766.10615,-95.21484375,-51.26953125,-498.046875,-46.38671875,0.0
1699110766.1100504,78.61328125,124.0234375,31.25,-16.11328125,0.0
1699110766.113951,27.83203125,-66.89453125,-308.10546875,-12.6953125,0.0
1699110766.1178513,-127.9296875,-152.34375,-662.109375,-42.48046875,0.0
1699110766.1217518,-102.05078125,-63.4765625,-569.3359375,-44.921875,0.0
1699110766.1257248,70.80078125,83.49609375,-231.4453125,-18.5546875,0.0
1699110766.1296253,93.75,123.046875,122.0703125,-8.7890625,0.0
1699110766.1335258,-88.37890625,-88.37890625,-375.48828125,-40.52734375,0.0
1699110766.1374264,-127.44140625,-157.71484375,-661.1328125,-52.734375,0.0
1699110766.141327,2.9296875,-28.3203125,-372.0703125,-23.4375,0.0
1699110766.1452274,100.09765625,89.84375,51.26953125,-7.32421875,0.0
1699110766.1491277,-76.171875,-107.91015625,-410.15625,-38.0859375,0.0
1699110766.1530282,-149.90234375,-193.84765625,-722.16796875,-57.12890625,0.0
1699110766.1569288,-46.38671875,-146.97265625,-630.859375,-35.64453125,0.0
1699110766.1608293,105.95703125,75.1953125,-152.83203125,-7.8125,0.0
1699110766.1647298,-19.04296875,113.28125,-85.9375,-27.34375,0.0
1699110766.1686304,-143.5546875,-104.00390625,-567.87109375,-44.43359375,0.0
1699110766.1725945,-93.26171875,-125.9765625,-642.578125,-44.43359375,0.0
1699110766.176495,82.51953125,149.90234375,-21.97265625,-27.34375,0.0
1699110766.1803954,47.36328125,134.765625,95.703125,-19.53125,0.0
1699110766.184296,-132.32421875,-133.7890625,-503.90625,-44.43359375,0.0
1699110766.1881964,-124.51171875,-163.57421875,-646.484375,-48.33984375,0.0
1699110766.192097,37.59765625,28.80859375,-268.06640625,-19.53125,0.0
1699110766.1959975,78.61328125,138.671875,113.28125,-10.25390625,0.0
1699110766.199898,-105.95703125,-118.1640625,-408.203125,-49.8046875,0.0
1699110766.2037985,-139.6484375,-331.0546875,-868.65234375,-46.875,0.0
1699110766.207699,-11.71875,13.18359375,-366.69921875,-27.34375,0.0
1699110766.2115993,115.234375,240.234375,229.4921875,-9.27734375,0.0
1699110766.2154999,-53.22265625,-115.234375,-377.9296875,-29.78515625,0.0
1699110766.2194564,-153.3203125,-226.5625,-711.42578125,-60.05859375,0.0
1699110766.223357,-65.4296875,-42.96875,-429.6875,-44.43359375,0.0
1699110766.2272575,99.609375,139.16015625,129.39453125,-8.7890625,0.0
1699110766.231158,3.90625,-55.17578125,-162.109375,-23.4375,0.0
1699110766.2350585,-137.6953125,-267.08984375,-685.05859375,-41.015625,0.0
1699110766.238959,-102.05078125,-184.08203125,-671.875,-39.0625,0.0
1699110766.2428596,78.125,73.2421875,-181.15234375,-13.671875,0.0
1699110766.2467601,62.98828125,-2.44140625,-61.03515625,-12.20703125,0.0
1699110766.2506604,-114.2578125,-202.1484375,-555.17578125,-37.109375,0.0
1699110766.254561,-111.328125,-52.24609375,-590.33203125,-33.69140625,0.0
1699110766.2584615,41.9921875,104.00390625,-180.17578125,-14.6484375,0.0
1699110766.262362,116.69921875,90.33203125,108.88671875,9.765625,0.0
1699110766.2663202,-69.82421875,-94.7265625,-363.28125,-17.578125,0.0
1699110766.2702208,-132.32421875,-145.5078125,-618.65234375,-30.76171875,0.0
1699110766.2741213,-16.11328125,-79.58984375,-469.7265625,-13.671875,0.0
1699110766.2780218,125.0,87.890625,53.22265625,-1.953125,0.0
1699110766.2819223,-18.5546875,-31.73828125,-170.8984375,-12.6953125,0.0
1699110766.2858229,-138.671875,-208.984375,-648.92578125,-39.55078125,0.0
1699110766.2897234,-66.89453125,-166.015625,-627.9296875,-33.69140625,0.0
1699110766.293624,109.375,-20.01953125,-295.41015625,5.37109375,0.0
1699110766.2975245,26.3671875,62.5,-105.46875,-15.625,0.0
1699110766.301425,-131.34765625,-59.08203125,-442.3828125,-43.9453125,0.0
1699110766.3053255,-100.09765625,-132.32421875,-655.2734375,-42.96875,0.0
1699110766.3092258,73.2421875,93.75,-131.8359375,-15.13671875,0.0
1699110766.3131762,83.49609375,145.01953125,216.796875,5.37109375,0.0
1699110766.3170767,-102.05078125,-119.140625,-375.48828125,-24.90234375,0.0
1699110766.3209772,-113.28125,-193.359375,-678.22265625,-32.2265625,0.0
1699110766.3248777,27.83203125,32.2265625,-238.76953125,-9.765625,0.0
1699110766.3287783,90.33203125,106.93359375,31.73828125,-2.44140625,0.0
1699110766.3326788,-71.2890625,-136.71875,-469.23828125,-19.53125,0.0
1699110766.3365793,-140.13671875,-242.67578125,-731.93359375,-35.64453125,0.0
1699110766.3404799,-55.6640625,-103.02734375,-527.83203125,-28.80859375,0.0
1699110766.3443804,105.46875,218.75,148.92578125,0.9765625,0.0
1699110766.3482807,-25.87890625,60.05859375,-99.12109375,-20.01953125,0.0
1699110766.3521812,-153.3203125,-241.69921875,-761.71875,-45.8984375,0.0
1699110766.3560817,-96.19140625,-93.26171875,-576.171875,-37.109375,0.0
1699110766.360082,74.70703125,215.33203125,105.46875,-13.671875,0.0
1699110766.3639824,28.80859375,84.9609375,41.50390625,-14.6484375,0.0
1699110766.367883,-129.39453125,-196.2890625,-554.6875,-36.62109375,0.0
1699110766.3717835,-115.234375,-106.93359375,-621.58203125,-48.33984375,0.0
1699110766.375684,44.921875,159.1796875,-107.91015625,-34.1796875,0.0
1699110766.3795846,87.890625,92.28515625,85.9375,-11.71875,0.0
1699110766.383485,-91.30859375,-264.6484375,-602.05078125,-22.94921875,0.0
1699110766.3873856,-133.30078125,-148.92578125,-731.4453125,-43.9453125,0.0
1699110766.3912861,-5.859375,83.984375,-330.56640625,-27.34375,0.0
1699110766.3951867,106.4453125,181.640625,125.48828125,-4.8828125,0.0
1699110766.3990872,-62.01171875,-4.8828125,-299.31640625,-33.69140625,0.0
1699110766.4029877,-141.11328125,-99.12109375,-623.046875,-51.7578125,0.0
1699110766.4069324,-49.31640625,0.9765625,-421.875,-29.296875,0.0
1699110766.410833,109.375,152.83203125,102.5390625,-1.953125,0.0
1699110766.4147334,4.8828125,21.97265625,-84.9609375,-24.4140625,0.0
1699110766.418634,-130.37109375,-125.9765625,-545.41015625,-48.828125,0.0
1699110766.4225345,-85.44921875,-98.14453125,-579.58984375,-38.0859375,0.0
1699110766.426435,83.49609375,63.96484375,-181.640625,-5.37109375,0.0
1699110766.4303353,57.6171875,55.6640625,-64.453125,-14.16015625,0.0
1699110766.4342358,-114.2578125,-96.19140625,-501.46484375,-54.19921875,0.0
1699110766.4381363,-108.88671875,-64.453125,-589.35546875,-46.875,0.0
1699110766.4420369,59.08203125,5.859375,-397.94921875,-9.27734375,0.0
1699110766.4459374,120.1171875,88.8671875,-85.9375,1.46484375,0.0
1699110766.449838,-66.89453125,1.953125,-338.8671875,-26.85546875,0.0
1699110766.4538097,-129.8828125,-96.19140625,-636.71875,-38.57421875,0.0
1699110766.4577103,-10.25390625,-26.3671875,-405.2734375,-22.94921875,0.0
1699110766.4616108,123.046875,192.87109375,181.640625,1.953125,0.0
1699110766.4655113,-31.73828125,22.4609375,-192.87109375,-11.23046875,0.0
1699110766.4694118,-140.13671875,-176.26953125,-641.11328125,-37.109375,0.0
1699110766.4733124,-62.98828125,-145.99609375,-581.54296875,-23.4375,0.0
1699110766.477213,110.83984375,158.69140625,11.23046875,11.23046875,0.0
1699110766.4811134,20.99609375,134.765625,5.859375,-5.37109375,0.0
1699110766.485014,-131.8359375,-174.8046875,-604.98046875,-34.1796875,0.0
1699110766.4889145,-96.6796875,-220.703125,-743.1640625,-27.83203125,0.0
1699110766.492815,69.3359375,178.7109375,-58.59375,-5.37109375,0.0
1699110766.4967155,66.40625,209.9609375,206.54296875,-15.625,0.0
1699110766.500702,-111.328125,-125.48828125,-470.703125,-41.015625,0.0
1699110766.5046024,-129.8828125,-143.5546875,-724.12109375,-41.50390625,0.0
1699110766.508503,18.06640625,116.2109375,-203.125,-26.3671875,0.0
1699110766.5124035,99.609375,245.60546875,269.04296875,-12.20703125,0.0
1699110766.516304,-83.984375,-80.078125,-376.953125,-36.1328125,0.0
1699110766.5202045,-148.4375,-199.21875,-752.9296875,-46.38671875,0.0
1699110766.524105,-48.33984375,-9.27734375,-420.8984375,-39.0625,0.0
1699110766.5280056,90.8203125,178.7109375,111.328125,-18.5546875,0.0
1699110766.5319061,-45.41015625,-65.4296875,-361.328125,-33.69140625,0.0
1699110766.5358067,-159.1796875,-181.640625,-713.37890625,-49.8046875,0.0
1699110766.5397072,-97.65625,-3.90625,-501.953125,-45.8984375,0.0
1699110766.5436077,66.40625,187.98828125,55.6640625,-22.4609375,0.0
1699110766.547574,3.41796875,9.765625,-170.41015625,-26.85546875,0.0
1699110766.5514746,-154.296875,-123.046875,-598.6328125,-56.15234375,0.0
1699110766.555375,-137.20703125,-23.92578125,-513.18359375,-63.96484375,0.0
1699110766.5592756,26.85546875,99.12109375,-137.6953125,-39.55078125,0.0
1699110766.5631762,59.5703125,64.94140625,-7.8125,-17.578125,0.0
1699110766.5670767,-119.140625,-145.99609375,-559.08203125,-49.31640625,0.0
1699110766.5709772,-153.3203125,-84.9609375,-625.48828125,-68.84765625,0.0
1699110766.5748777,-18.5546875,60.05859375,-329.58984375,-48.828125,0.0
1699110766.5787783,101.07421875,20.99609375,-221.19140625,-15.625,0.0
1699110766.5826788,-66.40625,-18.06640625,-428.7109375,-41.9921875,0.0
1699110766.5865793,-158.69140625,-43.45703125,-570.3125,-64.453125,0.0
1699110766.5904799,-67.3828125,-34.1796875,-504.39453125,-49.8046875,0.0
1699110766.5944507,97.65625,170.8984375,83.984375,-16.11328125,0.0
1699110766.5983512,-20.01953125,41.9921875,-113.28125,-31.25,0.0
1699110766.6022518,-154.78515625,-142.578125,-606.93359375,-55.6640625,0.0
1699110766.6061523,-90.33203125,-116.69921875,-583.984375,-32.2265625,0.0
1699110766.6100528,89.35546875,97.65625,-7.8125,-13.671875,0.0
1699110766.6139534,50.29296875,45.41015625,0.0,-19.04296875,0.0
1699110766.6178539,-116.2109375,-166.015625,-589.84375,-38.0859375,0.0
1699110766.6217544,-116.2109375,-205.078125,-764.6484375,-41.015625,0.0
1699110766.625655,31.73828125,39.55078125,-229.98046875,-20.01953125,0.0
1699110766.6295557,85.9375,265.13671875,261.71875,-9.27734375,0.0
1699110766.6334562,-85.9375,-31.73828125,-356.4453125,-28.3203125,0.0
1699110766.6373568,-124.51171875,-199.70703125,-752.9296875,-36.1328125,0.0
1699110766.6413188,-4.8828125,41.9921875,-330.078125,-23.92578125,0.0
1699110766.6452193,118.1640625,229.4921875,246.09375,-2.44140625,0.0
1699110766.64912,-42.48046875,-43.9453125,-232.421875,-26.3671875,0.0
1699110766.6530206,-142.08984375,-208.984375,-659.66796875,-48.828125,0.0
1699110766.6569211,-62.01171875,-51.7578125,-469.7265625,-31.25,0.0
1699110766.6608217,104.00390625,141.6015625,55.6640625,-3.41796875,0.0
1699110766.6647222,8.30078125,-30.76171875,-173.33984375,-11.23046875,0.0
1699110766.6686227,-141.11328125,-294.43359375,-767.578125,-36.62109375,0.0
1699110766.6725233,-104.00390625,-70.80078125,-597.16796875,-47.8515625,0.0
1699110766.6764238,65.4296875,193.84765625,8.30078125,-24.90234375,0.0
1699110766.6803243,49.8046875,75.68359375,31.25,-20.01953125,0.0
1699110766.6842248,-127.44140625,-83.984375,-471.6796875,-57.12890625,0.0
1699110766.6881893,-138.671875,-71.2890625,-587.40234375,-68.359375,0.0
1699110766.6920898,23.4375,95.21484375,-165.52734375,-32.2265625,0.0
1699110766.6959906,90.33203125,136.71875,156.73828125,-14.16015625,0.0
1699110766.699891,-101.07421875,-56.15234375,-346.6796875,-38.0859375,0.0
1699110766.7037916,-155.2734375,-127.44140625,-624.0234375,-50.78125,0.0
1699110766.7076921,-40.52734375,-55.6640625,-410.15625,-41.50390625,0.0
1699110766.7115927,97.65625,60.546875,43.9453125,-24.4140625,0.0
1699110766.7154932,-50.78125,-75.68359375,-306.640625,-37.59765625,0.0
1699110766.7193937,-160.64453125,-78.61328125,-568.359375,-54.6875,0.0
1699110766.7232943,-83.984375,-23.92578125,-470.21484375,-52.734375,0.0
1699110766.727195,87.890625,77.1484375,-8.30078125,-24.90234375,0.0
1699110766.7310956,18.06640625,40.0390625,21.484375,-27.83203125,0.0
1699110766.7350867,-129.8828125,-144.04296875,-541.50390625,-55.6640625,0.0
1699110766.7389872,-97.65625,-130.37109375,-630.37109375,-43.9453125,0.0
1699110766.7428877,72.75390625,91.796875,-141.6015625,-7.32421875,0.0
1699110766.7467883,83.984375,158.203125,182.12890625,-2.44140625,0.0
1699110766.7506888,-96.6796875,-115.234375,-413.57421875,-29.296875,0.0
1699110766.7545893,-117.67578125,-216.30859375,-750.48828125,-36.62109375,0.0
1699110766.75849,17.08984375,-100.09765625,-474.12109375,-15.625,0.0
1699110766.7623906,113.28125,191.40625,127.9296875,8.7890625,0.0
1699110766.7662911,-65.4296875,55.6640625,-239.74609375,-15.13671875,0.0
1699110766.7701917,-140.625,-152.34375,-710.9375,-30.76171875,0.0
1699110766.7740922,-34.1796875,-12.20703125,-456.54296875,-17.08984375,0.0
1699110766.7779927,111.81640625,232.421875,205.56640625,7.8125,0.0
1699110766.7819288,-20.01953125,57.6171875,-59.08203125,-9.765625,0.0
1699110766.7858293,-142.08984375,-168.45703125,-612.3046875,-37.59765625,0.0
1699110766.78973,-80.078125,-90.8203125,-569.82421875,-34.1796875,0.0
1699110766.7936306,94.23828125,146.97265625,-5.859375,-17.578125,0.0
1699110766.7975311,50.78125,111.328125,59.5703125,-17.578125,0.0
1699110766.8014317,-121.09375,-155.76171875,-538.57421875,-38.0859375,0.0
1699110766.8053322,-114.74609375,-148.4375,-678.7109375,-41.015625,0.0
1699110766.8092327,53.22265625,148.4375,-143.06640625,-4.8828125,0.0
1699110766.8131335,88.37890625,232.91015625,239.74609375,0.9765625,0.0
1699110766.817034,-91.796875,-158.203125,-493.1640625,-34.1796875,0.0
1699110766.8209345,-131.8359375,-183.10546875,-732.91015625,-48.33984375,0.0
1699110766.824835,-10.25390625,130.859375,-200.68359375,-37.109375,0.0
1699110766.828809,111.328125,195.80078125,200.1953125,-10.25390625,0.0
1699110766.8327096,-42.96875,-61.03515625,-328.125,-26.3671875,0.0
1699110766.83661,-128.41796875,-122.55859375,-652.83203125,-44.43359375,0.0
1699110766.8405106,-45.41015625,18.5546875,-394.53125,-28.80859375,0.0
1699110766.8444111,118.65234375,173.828125,145.99609375,0.9765625,0.0
1699110766.848312,16.11328125,-53.22265625,-245.60546875,-15.625,0.0
1699110766.8522124,-124.0234375,-201.171875,-707.03125,-42.48046875,0.0
1699110766.856113,-85.44921875,-33.69140625,-504.39453125,-35.64453125,0.0
1699110766.8600135,87.890625,147.4609375,18.06640625,-9.765625,0.0
1699110766.863914,67.87109375,-9.765625,-126.953125,-6.8359375,0.0
1699110766.8678148,-116.69921875,-88.8671875,-501.46484375,-33.203125,0.0
1699110766.8717153,-121.58203125,-40.0390625,-544.921875,-39.55078125,0.0
1699110766.8756807,34.66796875,59.08203125,-252.9296875,-21.484375,0.0
1699110766.8795815,98.6328125,163.57421875,190.4296875,-11.23046875,0.0
1699110766.883482,-86.42578125,-38.57421875,-320.3125,-38.0859375,0.0
1699110766.8873825,-142.578125,-144.04296875,-648.4375,-46.875,0.0
1699110766.891283,-30.76171875,-54.6875,-403.80859375,-30.76171875,0.0
1699110766.8951836,96.6796875,86.9140625,79.1015625,-13.671875,0.0
1699110766.8990843,-56.640625,-71.2890625,-333.984375,-34.1796875,0.0
1699110766.9029849,-167.48046875,-186.03515625,-708.0078125,-57.12890625,0.0
1699110766.9068854,-94.23828125,-142.08984375,-647.4609375,-43.9453125,0.0
1699110766.910786,79.1015625,118.1640625,-105.95703125,-10.7421875,0.0
1699110766.9146864,3.90625,145.99609375,23.4375,-25.87890625,0.0
1699110766.9185872,-133.7890625,-115.72265625,-518.5546875,-47.36328125,0.0
1699110766.9225676,-101.07421875,-157.2265625,-667.96875,-43.9453125,0.0
1699110766.9264681,74.21875,119.140625,-71.2890625,-10.25390625,0.0
1699110766.9303687,81.54296875,160.15625,224.609375,3.41796875,0.0
1699110766.9342694,-108.3984375,-138.18359375,-398.92578125,-35.64453125,0.0
1699110766.93817,-127.9296875,-208.0078125,-648.4375,-48.828125,0.0
1699110766.9420705,28.3203125,-31.25,-292.96875,-24.4140625,0.0
1699110766.945971,122.55859375,124.51171875,187.5,-1.953125,0.0
1699110766.9498718,-62.5,-110.83984375,-329.1015625,-30.76171875,0.0
1699110766.9537723,-130.859375,-346.19140625,-846.19140625,-51.26953125,0.0
1699110766.9576728,-25.390625,-31.73828125,-414.0625,-31.73828125,0.0
1699110766.9615734,115.72265625,174.8046875,181.640625,-0.48828125,0.0
1699110766.9654741,-14.16015625,-109.86328125,-306.640625,-17.08984375,0.0
1699110766.9694345,-127.44140625,-191.89453125,-647.4609375,-36.62109375,0.0
1699110766.973335,-75.68359375,-84.9609375,-458.49609375,-30.2734375,0.0
1699110766.9772356,98.6328125,98.14453125,82.03125,-4.8828125,0.0
1699110766.9811363,43.9453125,-45.41015625,-55.6640625,-15.625,0.0
1699110766.9850368,-124.51171875,-251.46484375,-584.9609375,-40.52734375,0.0
1699110766.9889374,-108.88671875,-218.26171875,-656.25,-32.71484375,0.0
1699110766.992838,51.26953125,-4.39453125,-225.09765625,-5.859375,0.0
1699110766.9967387,78.61328125,-15.625,-11.71875,9.765625,0.0
1699110767.0006392,-104.00390625,-210.9375,-488.76953125,-17.08984375,0.0
1699110767.0045397,-135.7421875,-99.609375,-582.03125,-31.73828125,0.0
1699110767.0084403,-5.37109375,16.6015625,-261.71875,-14.6484375,0.0
1699110767.012341,101.5625,53.22265625,126.46484375,-4.8828125,0.0
1699110767.0163505,-72.75390625,-96.19140625,-272.4609375,-29.296875,0.0
1699110767.020251,-154.78515625,-195.3125,-629.8828125,-43.9453125,0.0
1699110767.0241518,-57.12890625,-166.50390625,-534.1796875,-38.57421875,0.0
1699110767.0280523,96.6796875,50.78125,30.76171875,-25.390625,0.0
1699110767.0319529,-23.92578125,-29.78515625,-76.171875,-39.0625,0.0
1699110767.0358536,-145.5078125,-236.328125,-601.07421875,-47.36328125,0.0
1699110767.0397542,-88.37890625,-214.35546875,-653.3203125,-35.15625,0.0
1699110767.0436547,78.61328125,-64.94140625,-324.21875,-13.671875,0.0
1699110767.0475552,40.0390625,48.828125,-2.9296875,-21.97265625,0.0
1699110767.051456,-120.1171875,-99.609375,-378.90625,-41.015625,0.0
1699110767.0553565,-111.328125,-197.75390625,-695.3125,-44.43359375,0.0
1699110767.059257,48.33984375,20.5078125,-186.03515625,-28.80859375,0.0
1699110767.0632122,102.05078125,140.13671875,277.83203125,-16.6015625,0.0
1699110767.067113,-84.47265625,-128.90625,-336.9140625,-40.0390625,0.0
1699110767.0710135,-135.7421875,-259.27734375,-709.47265625,-52.24609375,0.0
1699110767.074914,-14.16015625,-54.6875,-308.59375,-25.87890625,0.0
1699110767.0788145,116.69921875,123.046875,201.66015625,-2.44140625,0.0
1699110767.0827153,-39.55078125,-133.30078125,-329.58984375,-27.34375,0.0
1699110767.0866158,-141.11328125,-267.578125,-715.33203125,-41.50390625,0.0
1699110767.0905163,-59.08203125,-145.01953125,-544.921875,-33.203125,0.0
1699110767.094417,101.5625,136.71875,98.14453125,-13.18359375,0.0
1699110767.0983176,1.46484375,35.64453125,-0.9765625,-20.01953125,0.0
1699110767.1022182,-138.18359375,-306.15234375,-725.09765625,-35.64453125,0.0
1699110767.106119,-102.05078125,-193.84765625,-642.578125,-34.1796875,0.0
1699110767.1101,68.84765625,188.4765625,83.49609375,-18.06640625,0.0
1699110767.1140008,63.96484375,98.6328125,162.59765625,-10.7421875,0.0
1699110767.1179013,-116.69921875,-206.0546875,-457.51953125,-30.2734375,0.0
1699110767.1218019,-132.8125,-156.73828125,-612.79296875,-45.41015625,0.0
1699110767.1257026,23.4375,55.6640625,-134.27734375,-23.4375,0.0
1699110767.1296031,102.05078125,41.015625,165.0390625,-4.39453125,0.0
1699110767.1335037,-83.984375,-312.01171875,-540.0390625,-33.203125,0.0
1699110767.1374044,-145.99609375,-243.1640625,-754.39453125,-50.29296875,0.0
1699110767.141305,-27.83203125,39.55078125,-294.43359375,-32.2265625,0.0
1699110767.1452057,116.2109375,135.25390625,185.05859375,-3.90625,0.0
1699110767.1491063,-25.87890625,-66.40625,-249.51171875,-27.83203125,0.0
1699110767.1530068,-135.7421875,-168.45703125,-617.67578125,-48.33984375,0.0
1699110767.1569457,-66.89453125,-76.66015625,-455.56640625,-33.69140625,0.0
1699110767.1608462,104.00390625,81.54296875,97.65625,-7.8125,0.0
1699110767.164747,31.25,-8.30078125,27.83203125,-16.6015625,0.0
1699110767.1686475,-128.41796875,-167.48046875,-486.81640625,-32.71484375,0.0
1699110767.172548,-98.6328125,-185.546875,-608.88671875,-27.83203125,0.0
1699110767.1764488,70.3125,-23.4375,-205.078125,-5.859375,0.0
1699110767.1803493,87.890625,7.32421875,22.4609375,4.39453125,0.0
1699110767.1842499,-92.7734375,-187.98828125,-475.09765625,-24.4140625,0.0
1699110767.1881506,-125.9765625,-150.390625,-577.63671875,-35.15625,0.0
1699110767.1920512,24.90234375,-97.65625,-400.87890625,-2.44140625,0.0
1699110767.1959517,131.34765625,0.48828125,-37.59765625,17.08984375,0.0
1699110767.1998525,-49.8046875,-44.43359375,-259.765625,-16.11328125,0.0
1699110767.2038286,-120.1171875,-195.3125,-617.67578125,-28.80859375,0.0
1699110767.207729,-20.01953125,-172.36328125,-458.0078125,-12.20703125,0.0
1699110767.2116299,125.9765625,51.26953125,165.0390625,13.18359375,0.0
1699110767.2155304,-7.32421875,-78.125,-62.01171875,-12.20703125,0.0
1699110767.219431,-134.765625,-313.96484375,-591.30859375,-43.9453125,0.0
1699110767.2233317,-82.03125,-330.078125,-610.3515625,-29.296875,0.0
1699110767.2272322,86.9140625,-18.06640625,-28.3203125,-4.39453125,0.0
1699110767.231133,40.52734375,11.71875,94.7265625,-12.20703125,0.0
1699110767.2350335,-132.32421875,-291.50390625,-536.1328125,-40.52734375,0.0
1699110767.238934,-118.65234375,-377.9296875,-771.97265625,-46.875,0.0
1699110767.2428348,47.8515625,-3.41796875,-122.0703125,-30.76171875,0.0
1699110767.2467353,81.0546875,93.26171875,267.08984375,-21.484375,0.0
1699110767.2507036,-105.95703125,-260.25390625,-450.1953125,-45.8984375,0.0
1699110767.254604,-152.34375,-294.43359375,-706.54296875,-60.546875,0.0
1699110767.2585049,-32.71484375,-36.62109375,-244.62890625,-44.43359375,0.0
1699110767.2624054,81.54296875,95.703125,220.703125,-24.4140625,0.0
1699110767.266306,-84.47265625,-209.47265625,-348.6328125,-51.26953125,0.0
1699110767.2702067,-176.7578125,-336.9140625,-732.91015625,-65.4296875,0.0
1699110767.2741072,-85.9375,-173.828125,-488.28125,-52.734375,0.0
1699110767.278008,81.54296875,42.48046875,96.19140625,-32.71484375,0.0
1699110767.2819085,-30.76171875,-145.5078125,-197.265625,-47.36328125,0.0
1699110767.285809,-161.1328125,-286.62109375,-660.15625,-63.96484375,0.0
1699110767.2897098,-107.421875,-82.51953125,-475.5859375,-55.17578125,0.0
1699110767.2936103,71.2890625,109.375,55.17578125,-20.99609375,0.0
1699110767.2975707,49.31640625,-8.7890625,-4.39453125,-21.97265625,0.0
1699110767.3014715,-133.7890625,-183.59375,-488.76953125,-51.7578125,0.0
1699110767.305372,-132.8125,-159.66796875,-548.828125,-62.01171875,0.0
1699110767.3092728,24.90234375,-35.15625,-244.62890625,-40.0390625,0.0
1699110767.3131733,77.1484375,24.4140625,52.734375,-12.6953125,0.0
1699110767.317074,-99.609375,-185.546875,-434.08203125,-34.66796875,0.0
1699110767.3209746,-152.34375,-179.6875,-629.39453125,-51.7578125,0.0
1699110767.324875,-29.78515625,-31.73828125,-342.7734375,-33.69140625,0.0
1699110767.328776,104.4921875,-39.55078125,-75.68359375,-12.20703125,0.0
1699110767.3326764,-52.24609375,-73.2421875,-256.34765625,-43.9453125,0.0
1699110767.3365772,-145.99609375,-113.76953125,-526.3671875,-49.8046875,0.0
1699110767.3404777,-64.453125,-117.1875,-531.73828125,-22.94921875,0.0
1699110767.3444405,102.5390625,94.7265625,62.98828125,-0.9765625,0.0
1699110767.348341,8.7890625,37.59765625,49.31640625,-20.99609375,0.0
1699110767.3522418,-139.16015625,-173.828125,-506.34765625,-40.52734375,0.0
1699110767.3561423,-99.609375,-191.40625,-602.5390625,-39.55078125,0.0
1699110767.3600428,67.87109375,49.8046875,-32.2265625,-17.08984375,0.0
1699110767.3639436,75.1953125,44.921875,88.8671875,1.46484375,0.0
1699110767.367844,-104.98046875,-167.96875,-493.65234375,-29.78515625,0.0
1699110767.3717449,-127.9296875,-244.62890625,-742.1875,-41.9921875,0.0
1699110767.3756454,18.5546875,-18.5546875,-244.140625,-19.04296875,0.0
1699110767.3795462,107.91015625,243.65234375,300.29296875,-0.48828125,0.0
1699110767.3834467,-60.05859375,-88.37890625,-377.44140625,-17.08984375,0.0
1699110767.3873475,-134.765625,-244.140625,-767.578125,-36.1328125,0.0
1699110767.3913133,-37.109375,-4.39453125,-372.55859375,-32.2265625,0.0
1699110767.3952138,112.3046875,205.56640625,246.09375,-2.44140625,0.0
1699110767.3991146,-27.83203125,-30.2734375,-126.46484375,-14.6484375,0.0
1699110767.4030151,-146.484375,-224.12109375,-635.7421875,-42.48046875,0.0
1699110767.406916,-76.171875,-80.078125,-524.4140625,-34.66796875,0.0
1699110767.4108164,99.12109375,121.09375,16.11328125,-8.7890625,0.0
1699110767.414717,31.73828125,-15.13671875,-85.9375,-24.4140625,0.0
1699110767.4186177,-129.39453125,-306.15234375,-699.70703125,-46.38671875,0.0
1699110767.4225183,-109.86328125,-139.6484375,-633.7890625,-44.921875,0.0
1699110767.426419,51.26953125,100.09765625,-194.3359375,-21.484375,0.0
1699110767.4303195,80.078125,81.54296875,60.05859375,-4.8828125,0.0
1699110767.4342203,-100.09765625,-83.49609375,-372.0703125,-33.69140625,0.0
1699110767.4381666,-128.90625,-101.5625,-602.05078125,-45.8984375,0.0
1699110767.4420674,8.7890625,46.38671875,-228.515625,-25.87890625,0.0
1699110767.445968,112.3046875,103.515625,156.73828125,-1.953125,0.0
1699110767.4498687,-62.98828125,-76.66015625,-313.4765625,-32.71484375,0.0
1699110767.4537692,-148.92578125,-157.71484375,-623.046875,-54.6875,0.0
1699110767.45767,-57.12890625,-99.12109375,-468.75,-38.57421875,0.0
1699110767.4615705,100.09765625,63.96484375,6.34765625,-11.71875,0.0
1699110767.4654713,-10.25390625,-20.5078125,-231.4453125,-28.3203125,0.0
1699110767.4693718,-147.94921875,-94.7265625,-546.38671875,-61.5234375,0.0
1699110767.4732726,-98.14453125,-56.640625,-474.12109375,-52.734375,0.0
1699110767.477173,77.1484375,39.55078125,-107.91015625,-20.99609375,0.0
1699110767.4810739,22.4609375,6.8359375,-26.3671875,-26.85546875,0.0
1699110767.485058,-137.6953125,-112.3046875,-460.44921875,-50.78125,0.0
1699110767.4889586,-122.55859375,-102.5390625,-583.0078125,-48.828125,0.0
1699110767.4928594,35.64453125,44.43359375,-164.55078125,-32.71484375,0.0
1699110767.49676,81.0546875,149.90234375,243.1640625,-19.53125,0.0
1699110767.5006607,-100.5859375,-80.56640625,-300.29296875,-43.45703125,0.0
1699110767.5045612,-139.6484375,-253.41796875,-712.890625,-52.24609375,0.0
1699110767.508462,-5.37109375,-177.734375,-529.296875,-21.484375,0.0
1699110767.5123625,115.72265625,168.9453125,161.62109375,-0.9765625,0.0
1699110767.5162632,-43.45703125,53.22265625,-111.81640625,-27.83203125,0.0
1699110767.5201638,-138.18359375,-177.24609375,-658.203125,-45.8984375,0.0
1699110767.5240645,-59.5703125,-58.59375,-439.94140625,-40.52734375,0.0
1699110767.527965,106.93359375,176.26953125,219.7265625,-12.20703125,0.0
1699110767.5319064,0.9765625,30.2734375,-19.53125,-17.08984375,0.0
1699110767.535807,-133.30078125,-198.73046875,-591.30859375,-29.78515625,0.0
1699110767.5397077,-89.35546875,-157.2265625,-638.18359375,-20.99609375,0.0
1699110767.5436082,79.1015625,137.20703125,-38.0859375,6.34765625,0.0
1699110767.547509,68.84765625,122.55859375,133.7890625,-2.44140625,0.0
1699110767.5514095,-104.98046875,-196.2890625,-538.57421875,-38.0859375,0.0
1699110767.5553102,-107.91015625,-206.0546875,-726.07421875,-37.109375,0.0
1699110767.5592108,31.25,80.078125,-156.25,-24.90234375,0.0
1699110767.5631115,102.5390625,222.16796875,290.0390625,-5.859375,0.0
1699110767.567012,-68.84765625,-161.1328125,-457.51953125,-18.06640625,0.0
1699110767.5709128,-140.625,-218.26171875,-718.75,-39.55078125,0.0
1699110767.5748134,-30.76171875,73.2421875,-274.4140625,-24.90234375,0.0
1699110767.578792,113.28125,188.4765625,203.61328125,3.41796875,0.0
1699110767.5826929,-35.15625,-73.73046875,-303.7109375,-13.671875,0.0
1699110767.5865934,-143.06640625,-153.80859375,-654.296875,-33.203125,0.0
1699110767.5904942,-76.66015625,-25.87890625,-396.97265625,-35.15625,0.0
1699110767.5943947,76.66015625,77.63671875,47.36328125,-1.953125,0.0
1699110767.5982955,12.20703125,-58.59375,-202.1484375,-2.9296875,0.0
1699110767.6021962,-131.8359375,-195.3125,-633.30078125,-41.9921875,0.0
1699110767.6060967,-105.46875,-78.125,-532.71484375,-40.52734375,0.0
1699110767.6099975,58.59375,103.515625,-50.78125,-15.13671875,0.0
1699110767.613898,68.84765625,-17.08984375,-112.3046875,-13.18359375,0.0
1699110767.6177988,-112.79296875,-99.12109375,-487.3046875,-46.875,0.0
1699110767.6216993,-136.71875,-81.54296875,-563.96484375,-51.26953125,0.0
1699110767.6256697,6.34765625,10.7421875,-284.66796875,-24.90234375,0.0
1699110767.6295702,94.23828125,146.484375,209.9609375,-13.671875,0.0
1699110767.633471,-77.1484375,-39.55078125,-293.45703125,-36.62109375,0.0
1699110767.6373718,-141.11328125,-145.01953125,-624.0234375,-47.36328125,0.0
1699110767.6412723,-36.62109375,-74.70703125,-414.0625,-33.203125,0.0
1699110767.645173,108.88671875,85.9375,110.83984375,-0.48828125,0.0
1699110767.6490736,-23.4375,-46.38671875,-201.171875,-14.6484375,0.0
1699110767.6529744,-140.625,-166.015625,-615.234375,-45.41015625,0.0
1699110767.656875,-79.58984375,-169.43359375,-636.71875,-35.64453125,0.0
1699110767.6607757,94.23828125,83.0078125,-126.953125,-2.9296875,0.0
1699110767.6646764,41.50390625,171.875,132.32421875,-20.01953125,0.0
1699110767.668577,-120.1171875,-104.00390625,-447.75390625,-45.41015625,0.0
1699110767.672539,-99.12109375,-169.921875,-688.4765625,-43.45703125,0.0
1699110767.6764398,61.5234375,104.00390625,-89.84375,-23.4375,0.0
1699110767.6803403,97.16796875,166.50390625,279.78515625,-7.8125,0.0
1699110767.684241,-84.9609375,-137.20703125,-373.046875,-35.64453125,0.0
1699110767.6881418,-122.55859375,-215.33203125,-653.80859375,-40.52734375,0.0
1699110767.6920424,20.5078125,-40.0390625,-287.59765625,-14.16015625,0.0
1699110767.695943,114.2578125,133.30078125,184.5703125,-0.9765625,0.0
1699110767.6998436,-59.5703125,-81.54296875,-260.7421875,-24.90234375,0.0
1699110767.7037444,-137.20703125,-337.40234375,-800.29296875,-33.203125,0.0
1699110767.7076452,-52.734375,-51.26953125,-457.51953125,-23.92578125,0.0
1699110767.7115457,105.46875,194.3359375,190.91796875,-3.41796875,0.0
1699110767.7154465,-4.8828125,-31.73828125,-161.62109375,-15.625,0.0
1699110767.7194014,-141.11328125,-129.39453125,-602.5390625,-35.64453125,0.0
1699110767.7233021,-98.6328125,-44.43359375,-494.140625,-31.73828125,0.0
1699110767.7272027,83.984375,139.6484375,73.2421875,-0.9765625,0.0
1699110767.7311034,60.05859375,46.38671875,63.4765625,-2.9296875,0.0
1699110767.735004,-118.1640625,-177.24609375,-518.5546875,-32.2265625,0.0
1699110767.7389047,-118.1640625,-171.875,-667.48046875,-42.48046875,0.0
1699110767.7428055,34.66796875,45.8984375,-210.44921875,-19.53125,0.0
1699110767.746706,87.890625,43.9453125,93.26171875,-2.44140625,0.0
1699110767.7506068,-96.6796875,-165.52734375,-415.52734375,-35.15625,0.0
1699110767.7545073,-146.97265625,-65.91796875,-568.359375,-54.6875,0.0
1699110767.758408,-23.4375,39.55078125,-282.71484375,-32.2265625,0.0
1699110767.7623088,109.375,105.95703125,169.921875,1.953125,0.0
1699110767.7662656,-46.875,-74.70703125,-198.2421875,-22.4609375,0.0
1699110767.7701664,-147.4609375,-211.9140625,-633.7890625,-44.43359375,0.0
1699110767.774067,-61.5234375,-108.88671875,-509.27734375,-34.1796875,0.0
1699110767.7779677,106.4453125,90.8203125,11.23046875,-5.37109375,0.0
1699110767.7818682,15.13671875,10.25390625,-31.73828125,-16.11328125,0.0
1699110767.785769,-122.55859375,-220.21484375,-576.66015625,-46.38671875,0.0
1699110767.7896698,-82.51953125,-216.30859375,-662.109375,-41.015625,0.0
1699110767.7935703,85.44921875,-59.08203125,-318.359375,-5.859375,0.0
1699110767.797471,83.0078125,96.19140625,100.09765625,-3.90625,0.0
1699110767.8013718,-97.16796875,-50.78125,-300.29296875,-43.9453125,0.0
1699110767.8052723,-111.81640625,-191.40625,-691.40625,-36.1328125,0.0
1699110767.809173,34.66796875,24.4140625,-183.10546875,-4.39453125,0.0
1699110767.813122,105.95703125,156.73828125,295.41015625,1.46484375,0.0
1699110767.8170226,-77.63671875,-110.3515625,-287.109375,-29.296875,0.0
1699110767.8209233,-140.625,-241.2109375,-665.52734375,-38.57421875,0.0
1699110767.824824,-38.0859375,-95.703125,-378.90625,-26.85546875,0.0
1699110767.8287246,102.05078125,67.3828125,176.26953125,-11.23046875,0.0
1699110767.8326254,-40.0390625,-102.5390625,-187.5,-32.71484375,0.0
1699110767.8365262,-148.92578125,-282.71484375,-714.84375,-48.33984375,0.0
1699110767.8404267,-87.890625,-184.5703125,-525.390625,-35.15625,0.0
1699110767.8443274,70.3125,175.78125,199.21875,-12.20703125,0.0
1699110767.8482282,3.41796875,56.15234375,81.0546875,-26.85546875,0.0
1699110767.8521287,-148.92578125,-250.9765625,-598.14453125,-51.7578125,0.0
1699110767.8560295,-124.0234375,-155.76171875,-585.9375,-56.15234375,0.0
1699110767.8600156,38.57421875,105.95703125,20.99609375,-31.25,0.0
1699110767.8639164,48.33984375,64.94140625,194.3359375,-20.99609375,0.0
1699110767.867817,-136.71875,-223.14453125,-438.96484375,-60.546875,0.0
1699110767.8717177,-153.80859375,-187.5,-628.41796875,-63.96484375,0.0
1699110767.8756185,-2.44140625,27.34375,-195.3125,-22.4609375,0.0
1699110767.879519,107.91015625,47.8515625,171.875,1.953125,0.0
1699110767.8834198,-70.80078125,-305.17578125,-502.9296875,-27.34375,0.0
1699110767.8873205,-159.66796875,-236.328125,-718.75,-49.8046875,0.0
1699110767.891221,-59.5703125,43.9453125,-327.1484375,-33.69140625,0.0
1699110767.8951218,101.5625,139.16015625,173.828125,-11.23046875,0.0
1699110767.8990226,-16.11328125,-40.0390625,-131.34765625,-29.296875,0.0
1699110767.902923,-137.20703125,-159.66796875,-562.01171875,-50.78125,0.0
1699110767.9068556,-83.984375,-79.1015625,-464.84375,-45.8984375,0.0
1699110767.9107563,93.75,87.890625,62.98828125,-18.5546875,0.0
1699110767.9146569,54.19921875,36.62109375,99.609375,-19.04296875,0.0
1699110767.9185576,-107.91015625,-147.4609375,-429.19921875,-41.015625,0.0
1699110767.9224584,-94.7265625,-169.921875,-587.890625,-41.015625,0.0
1699110767.926359,65.4296875,-15.13671875,-211.42578125,-14.6484375,0.0
1699110767.9302597,113.76953125,51.26953125,125.0,3.90625,0.0
1699110767.9341605,-76.66015625,-95.703125,-327.1484375,-32.2265625,0.0
1699110767.9380612,-118.65234375,-120.60546875,-573.73046875,-50.29296875,0.0
1699110767.9419618,12.20703125,-120.60546875,-463.37890625,-20.5078125,0.0
1699110767.9458625,124.51171875,60.546875,23.4375,0.48828125,0.0
1699110767.9497633,-44.43359375,7.8125,-107.91015625,-29.78515625,0.0
1699110767.9537454,-146.97265625,-186.03515625,-588.37890625,-46.38671875,0.0
1699110767.9576461,-65.4296875,-148.4375,-514.16015625,-33.203125,0.0
1699110767.9615467,102.5390625,117.67578125,168.45703125,-2.44140625,0.0
1699110767.9654474,-1.46484375,11.71875,12.6953125,-15.625,0.0
1699110767.9693482,-145.01953125,-239.74609375,-549.8046875,-43.45703125,0.0
1699110767.9732487,-100.09765625,-258.7890625,-621.09375,-37.109375,0.0
1699110767.9771495,72.265625,26.85546875,-67.87109375,-12.6953125,0.0
1699110767.9810503,43.9453125,86.9140625,194.82421875,-15.13671875,0.0
1699110767.984951,-133.7890625,-237.3046875,-453.61328125,-42.48046875,0.0
1699110767.9888515,-140.625,-369.62890625,-790.0390625,-42.48046875,0.0
1699110767.9927523,9.765625,-13.671875,-160.64453125,-26.85546875,0.0
1699110767.996653,84.47265625,78.61328125,270.99609375,-14.6484375,0.0
1699110768.0006258,-100.5859375,-268.06640625,-394.04296875,-42.96875,0.0
1699110768.0045266,-164.0625,-283.203125,-643.06640625,-60.05859375,0.0
1699110768.0084274,-55.17578125,-88.8671875,-274.4140625,-42.96875,0.0
1699110768.012328,78.125,33.69140625,234.375,-16.11328125,0.0
1699110768.0162287,-58.59375,-240.72265625,-227.05078125,-33.203125,0.0
1699110768.0201294,-153.3203125,-376.46484375,-688.4765625,-54.19921875,0.0
1699110768.0240302,-70.3125,-233.88671875,-545.8984375,-35.64453125,0.0
1699110768.0279307,105.46875,-9.27734375,34.66796875,-12.6953125,0.0
1699110768.0318315,26.3671875,-174.31640625,-148.92578125,-25.87890625,0.0
1699110768.0357323,-128.41796875,-359.375,-640.13671875,-46.38671875,0.0
1699110768.039633,-95.703125,-155.2734375,-510.7421875,-47.36328125,0.0
1699110768.0435336,86.9140625,34.66796875,-2.44140625,-18.5546875,0.0
1699110768.0474982,97.65625,-49.31640625,85.44921875,-7.8125,0.0
1699110768.051399,-85.9375,-214.35546875,-429.6875,-34.1796875,0.0
1699110768.0552998,-104.4921875,-227.5390625,-608.88671875,-41.015625,0.0
1699110768.0592003,35.15625,-118.65234375,-326.66015625,-11.23046875,0.0
1699110768.063101,117.67578125,19.04296875,123.53515625,4.8828125,0.0
1699110768.0670018,-61.5234375,-193.359375,-377.44140625,-23.92578125,0.0
1699110768.0709026,-133.7890625,-257.8125,-652.83203125,-42.48046875,0.0
1699110768.074803,-31.25,-125.48828125,-434.5703125,-31.73828125,0.0
1699110768.0787039,112.3046875,-93.75,-172.8515625,-4.39453125,0.0
1699110768.0826046,-22.94921875,-97.16796875,-173.33984375,-19.53125,0.0
1699110768.0865054,-144.53125,-159.1796875,-493.1640625,-44.43359375,0.0
1699110768.090406,-88.37890625,-189.94140625,-583.49609375,-44.921875,0.0
1699110768.094363,74.21875,41.50390625,4.8828125,-18.06640625,0.0
1699110768.0982635,16.6015625,20.01953125,73.2421875,-16.11328125,0.0
1699110768.1021643,-135.7421875,-207.51953125,-480.95703125,-36.62109375,0.0
1699110768.106065,-119.140625,-229.00390625,-621.58203125,-39.55078125,0.0
1699110768.1099658,36.1328125,-32.2265625,-131.8359375,-28.3203125,0.0
1699110768.1138663,63.96484375,-7.32421875,148.4375,-17.578125,0.0
1699110768.117767,-121.58203125,-207.03125,-421.875,-42.48046875,0.0
1699110768.1216679,-161.1328125,-308.59375,-759.765625,-56.15234375,0.0
1699110768.1255686,-28.80859375,-104.00390625,-299.8046875,-36.62109375,0.0
1699110768.1294694,85.9375,187.5,295.41015625,-12.6953125,0.0
1699110768.13337,-79.1015625,-79.1015625,-270.5078125,-38.0859375,0.0
1699110768.1372707,-166.50390625,-271.484375,-714.84375,-47.36328125,0.0
1699110768.1412296,-77.63671875,-90.33203125,-402.83203125,-19.04296875,0.0
1699110768.1451304,75.68359375,153.3203125,242.1875,2.9296875,0.0
1699110768.1490312,-36.1328125,-59.5703125,-42.48046875,-18.06640625,0.0
1699110768.1529317,-156.73828125,-272.4609375,-582.03125,-43.9453125,0.0
1699110768.1568325,-95.21484375,-138.671875,-528.3203125,-46.38671875,0.0
1699110768.1607332,80.078125,52.24609375,-33.69140625,-17.08984375,0.0
1699110768.164634,46.875,-30.2734375,-12.20703125,-15.625,0.0
1699110768.1685348,-112.3046875,-316.40625,-659.66796875,-36.62109375,0.0
1699110768.1724353,-95.703125,-181.640625,-701.171875,-37.109375,0.0
1699110768.176336,71.2890625,144.53125,-96.19140625,-16.11328125,0.0
1699110768.1802368,120.1171875,136.71875,225.09765625,-7.8125,0.0
1699110768.1841376,-70.3125,-101.07421875,-331.54296875,-41.9921875,0.0
1699110768.188089,-117.1875,-136.71875,-595.703125,-48.33984375,0.0
1699110768.1919897,6.8359375,11.23046875,-256.34765625,-27.34375,0.0
1699110768.1958904,134.765625,125.0,188.96484375,-4.39453125,0.0
1699110768.1997912,-32.2265625,-67.3828125,-256.34765625,-21.97265625,0.0
1699110768.2036917,-134.765625,-199.70703125,-631.8359375,-35.64453125,0.0
1699110768.2075925,-38.57421875,-123.53515625,-480.46875,-23.92578125,0.0
1699110768.2114933,120.1171875,57.12890625,-1.46484375,3.90625,0.0
1699110768.215394,13.671875,-9.765625,-187.5,-5.37109375,0.0
1699110768.2192948,-129.39453125,-82.51953125,-508.7890625,-40.52734375,0.0
1699110768.2231953,-93.75,-62.98828125,-495.60546875,-36.62109375,0.0
1699110768.227096,73.73046875,20.99609375,-167.96875,-16.11328125,0.0
1699110768.2309968,63.4765625,23.92578125,27.34375,-16.11328125,0.0
1699110768.234986,-119.140625,-83.0078125,-376.46484375,-47.36328125,0.0
1699110768.2388868,-136.71875,-151.3671875,-631.8359375,-59.08203125,0.0
1699110768.2427874,6.8359375,-12.20703125,-223.14453125,-31.73828125,0.0
1699110768.2466881,78.125,141.11328125,263.18359375,-11.71875,0.0
1699110768.250589,-103.515625,-73.73046875,-273.92578125,-38.0859375,0.0
1699110768.2544897,-161.1328125,-251.46484375,-701.171875,-52.734375,0.0
1699110768.2583904,-50.78125,-195.80078125,-527.83203125,-30.2734375,0.0
1699110768.2622912,92.28515625,169.43359375,195.3125,3.41796875,0.0
1699110768.2661917,-43.45703125,54.6875,-54.19921875,-16.6015625,0.0
1699110768.2700925,-159.1796875,-188.96484375,-638.18359375,-46.875,0.0
1699110768.2739933,-93.26171875,-93.75,-487.3046875,-37.59765625,0.0
1699110768.277894,82.03125,176.26953125,206.0546875,-6.8359375,0.0
1699110768.281875,12.20703125,81.0546875,62.98828125,-20.5078125,0.0
1699110768.2857757,-132.8125,-209.9609375,-586.42578125,-47.36328125,0.0
1699110768.2896764,-102.5390625,-162.59765625,-608.88671875,-54.6875,0.0
1699110768.293577,68.84765625,152.83203125,10.25390625,-29.78515625,0.0
1699110768.2974777,97.65625,149.4140625,253.90625,-7.8125,0.0
1699110768.3013785,-84.47265625,-173.828125,-441.40625,-39.0625,0.0
1699110768.3052793,-96.6796875,-187.98828125,-695.3125,-55.6640625,0.0
1699110768.30918,35.64453125,54.19921875,-256.34765625,-28.80859375,0.0
1699110768.3130808,129.8828125,219.7265625,234.86328125,-1.953125,0.0
1699110768.3169816,-43.45703125,-124.51171875,-397.94921875,-34.1796875,0.0
1699110768.320882,-132.32421875,-224.609375,-708.0078125,-42.96875,0.0
1699110768.3247828,-32.2265625,59.08203125,-303.7109375,-22.94921875,0.0
1699110768.3287663,115.234375,185.546875,202.63671875,-11.23046875,0.0
1699110768.332667,-22.94921875,-63.96484375,-209.47265625,-32.2265625,0.0
1699110768.3365676,-145.99609375,-154.296875,-600.09765625,-43.9453125,0.0
1699110768.3404684,-84.9609375,-29.296875,-434.5703125,-39.55078125,0.0
1699110768.3443692,83.0078125,108.3984375,54.6875,-18.5546875,0.0
1699110768.34827,37.109375,-20.01953125,-84.9609375,-15.625,0.0
1699110768.3521707,-138.671875,-184.08203125,-568.84765625,-49.31640625,0.0
1699110768.3560715,-140.625,-68.359375,-534.66796875,-56.15234375,0.0
1699110768.3599722,31.25,76.66015625,-107.91015625,-24.4140625,0.0
1699110768.363873,75.68359375,-41.9921875,-59.5703125,-13.671875,0.0
1699110768.3677738,-120.1171875,-93.26171875,-437.98828125,-49.31640625,0.0
1699110768.3716745,-162.59765625,-64.94140625,-532.71484375,-61.03515625,0.0
1699110768.3756387,-23.92578125,-15.625,-312.98828125,-37.59765625,0.0
1699110768.3795393,91.796875,138.671875,206.54296875,-13.671875,0.0
1699110768.38344,-75.68359375,-17.578125,-194.3359375,-33.203125,0.0
1699110768.3873408,-163.57421875,-146.484375,-588.37890625,-49.31640625,0.0
1699110768.3912416,-80.56640625,-118.1640625,-466.796875,-38.57421875,0.0
1699110768.3951423,76.66015625,61.5234375,85.9375,-19.53125,0.0
1699110768.399043,-25.87890625,-49.31640625,-159.66796875,-32.71484375,0.0
1699110768.4029438,-160.15625,-205.078125,-634.765625,-59.08203125,0.0
1699110768.4068446,-116.2109375,-181.640625,-664.55078125,-56.640625,0.0
1699110768.4107454,60.546875,87.40234375,-118.1640625,-24.90234375,0.0
1699110768.4146461,42.96875,184.5703125,200.1953125,-21.97265625,0.0
1699110768.418547,-128.41796875,-115.72265625,-417.48046875,-50.29296875,0.0
1699110768.4225256,-113.76953125,-174.8046875,-703.125,-57.12890625,0.0
1699110768.4264264,52.734375,99.609375,-140.13671875,-34.66796875,0.0
1699110768.4303272,106.4453125,196.2890625,302.734375,-16.6015625,0.0
1699110768.434228,-75.68359375,-94.7265625,-308.59375,-36.1328125,0.0
1699110768.4381287,-120.1171875,-244.140625,-689.453125,-39.0625,0.0
1699110768.4420295,0.9765625,-79.1015625,-418.45703125,-20.5078125,0.0
1699110768.4459302,128.90625,157.2265625,185.05859375,1.953125,0.0
1699110768.449831,-17.08984375,-35.15625,-129.8828125,-12.6953125,0.0
1699110768.4537318,-122.0703125,-311.03515625,-765.13671875,-30.2734375,0.0
1699110768.4576325,-59.5703125,-82.03125,-530.2734375,-31.25,0.0
1699110768.461533,107.91015625,173.828125,124.51171875,-12.20703125,0.0
1699110768.4654338,19.53125,-3.41796875,-103.515625,-23.92578125,0.0
1699110768.4693935,-139.6484375,-137.6953125,-553.22265625,-57.12890625,0.0
1699110768.473294,-103.02734375,-67.3828125,-511.23046875,-54.19921875,0.0
1699110768.4771948,69.3359375,114.74609375,-22.94921875,-22.4609375,0.0
1699110768.4810956,61.03515625,71.2890625,89.35546875,-27.83203125,0.0
1699110768.4849963,-123.046875,-146.97265625,-452.63671875,-63.96484375,0.0
1699110768.488897,-141.11328125,-169.921875,-647.94921875,-65.91796875,0.0
1699110768.4927979,9.27734375,19.04296875,-277.34375,-34.66796875,0.0
1699110768.4966986,98.6328125,65.4296875,91.30859375,-7.8125,0.0
1699110768.5005994,-83.984375,-135.7421875,-359.375,-35.15625,0.0
1699110768.5045002,-155.2734375,-75.1953125,-553.7109375,-56.15234375,0.0
1699110768.508401,-45.8984375,28.80859375,-316.89453125,-35.64453125,0.0
1699110768.5123017,103.515625,94.7265625,175.78125,-2.9296875,0.0
1699110768.5162525,-32.2265625,-44.921875,-96.19140625,-18.06640625,0.0
1699110768.5201533,-146.97265625,-156.73828125,-578.125,-40.52734375,0.0
1699110768.524054,-79.1015625,-82.03125,-493.65234375,-37.59765625,0.0
1699110768.5279548,96.6796875,104.4921875,34.66796875,-9.765625,0.0
1699110768.5318556,36.62109375,60.546875,58.10546875,-16.11328125,0.0
1699110768.5357563,-125.0,-163.57421875,-455.56640625,-47.8515625,0.0
1699110768.539657,-101.07421875,-186.03515625,-625.9765625,-47.8515625,0.0
1699110768.543558,74.21875,-47.36328125,-320.3125,-16.11328125,0.0
1699110768.5474586,94.7265625,136.71875,153.80859375,-9.27734375,0.0
1699110768.5513594,-92.7734375,-17.08984375,-271.484375,-39.55078125,0.0
1699110768.5552602,-119.140625,-162.59765625,-666.50390625,-43.45703125,0.0
1699110768.559161,16.6015625,27.83203125,-229.98046875,-31.73828125,0.0
1699110768.5631034,123.046875,198.2421875,296.875,-10.7421875,0.0
1699110768.5670042,-46.38671875,-44.921875,-203.61328125,-19.04296875,0.0
1699110768.570905,-129.39453125,-208.984375,-673.33984375,-42.96875,0.0
1699110768.5748057,-34.66796875,-75.68359375,-476.07421875,-34.66796875,0.0
1699110768.5787065,119.140625,162.109375,190.4296875,-2.9296875,0.0
1699110768.5826073,-6.34765625,-20.99609375,-127.9296875,-17.08984375,0.0
1699110768.586508,-142.578125,-231.4453125,-690.4296875,-43.45703125,0.0
1699110768.5904088,-90.8203125,-104.4921875,-548.828125,-41.015625,0.0
1699110768.5943096,78.61328125,222.16796875,123.53515625,-8.30078125,0.0
1699110768.5982103,43.45703125,128.41796875,153.3203125,-0.48828125,0.0
1699110768.602111,-116.2109375,-197.75390625,-539.0625,-31.25,0.0
1699110768.6060119,-117.1875,-135.7421875,-618.65234375,-40.0390625,0.0
1699110768.6100023,31.73828125,114.2578125,-53.7109375,-14.16015625,0.0
1699110768.613903,77.63671875,123.53515625,239.74609375,-9.27734375,0.0
1699110768.617804,-115.234375,-166.9921875,-391.6015625,-54.6875,0.0
1699110768.6217048,-164.0625,-161.62109375,-623.046875,-55.17578125,0.0
1699110768.6256056,-29.78515625,35.15625,-233.3984375,-27.34375,0.0
1699110768.6295063,97.16796875,71.77734375,142.08984375,-5.859375,0.0
1699110768.633407,-61.5234375,-236.81640625,-448.2421875,-22.94921875,0.0
1699110768.637308,-145.99609375,-183.10546875,-673.33984375,-39.55078125,0.0
1699110768.6412086,-62.98828125,39.55078125,-354.4921875,-28.80859375,0.0
1699110768.6451094,93.75,137.6953125,169.921875,-3.90625,0.0
1699110768.6490102,-7.32421875,-28.3203125,-70.3125,-15.625,0.0
1699110768.652911,-151.3671875,-134.27734375,-539.55078125,-44.43359375,0.0
1699110768.656848,-119.140625,-67.3828125,-500.48828125,-46.38671875,0.0
1699110768.6607487,51.7578125,81.54296875,-11.23046875,-20.5078125,0.0
1699110768.6646495,39.0625,85.9375,186.5234375,-18.5546875,0.0
1699110768.6685503,-139.6484375,-113.28125,-398.92578125,-44.43359375,0.0
1699110768.672451,-146.97265625,-168.45703125,-645.99609375,-47.8515625,0.0
1699110768.6763518,7.8125,-26.85546875,-280.76171875,-22.94921875,0.0
1699110768.6802526,85.9375,70.80078125,109.86328125,-6.8359375,0.0
1699110768.6841533,-87.40234375,-69.3359375,-309.5703125,-36.62109375,0.0
1699110768.688054,-150.390625,-114.74609375,-601.07421875,-46.875,0.0
1699110768.6919549,-29.78515625,-95.703125,-498.53515625,-30.2734375,0.0
1699110768.6958556,119.62890625,117.67578125,20.99609375,-8.7890625,0.0
1699110768.6997564,-27.83203125,75.1953125,-78.61328125,-26.3671875,0.0
1699110768.703731,-134.27734375,-132.32421875,-571.2890625,-54.19921875,0.0
1699110768.7076318,-60.05859375,-124.51171875,-546.875,-35.64453125,0.0
1699110768.7115326,110.3515625,151.3671875,169.43359375,4.39453125,0.0
1699110768.7154334,32.2265625,99.609375,98.14453125,-9.27734375,0.0
1699110768.7193341,-117.67578125,-161.62109375,-505.37109375,-35.64453125,0.0
1699110768.723235,-86.42578125,-215.8203125,-634.27734375,-32.71484375,0.0
1699110768.7271357,83.0078125,83.49609375,-104.4921875,-9.27734375,0.0
1699110768.7310364,89.35546875,190.91796875,255.37109375,-7.32421875,0.0
1699110768.7349372,-92.28515625,-139.16015625,-388.18359375,-27.34375,0.0
1699110768.738838,-115.72265625,-285.15625,-782.2265625,-29.296875,0.0
1699110768.7427387,24.90234375,63.4765625,-192.3828125,-15.625,0.0
1699110768.7466395,117.67578125,189.94140625,272.4609375,4.39453125,0.0
1699110768.7506068,-74.21875,-126.953125,-378.41796875,-25.87890625,0.0
1699110768.7545075,-148.92578125,-166.9921875,-644.53125,-49.31640625,0.0
1699110768.7584083,-38.57421875,7.32421875,-324.70703125,-28.3203125,0.0
1699110768.762309,104.98046875,179.19921875,234.375,-3.90625,0.0
1699110768.7662098,-33.69140625,-59.5703125,-150.390625,-27.34375,0.0
1699110768.7701106,-159.66796875,-244.62890625,-663.57421875,-54.19921875,0.0
1699110768.7740114,-95.21484375,-128.41796875,-568.84765625,-42.48046875,0.0
1699110768.7779121,81.54296875,163.0859375,82.51953125,-4.39453125,0.0
1699110768.781813,25.87890625,7.8125,-11.23046875,-6.8359375,0.0
1699110768.7857137,-139.16015625,-215.8203125,-562.01171875,-30.2734375,0.0
1699110768.7896147,-119.62890625,-30.76171875,-502.44140625,-37.59765625,0.0
1699110768.7935154,51.7578125,124.51171875,-47.36328125,-18.5546875,0.0
1699110768.7974741,88.8671875,69.3359375,150.87890625,-8.30078125,0.0
1699110768.801375,-92.28515625,-125.0,-389.6484375,-39.55078125,0.0
1699110768.8052757,-125.0,-177.24609375,-653.3203125,-49.31640625,0.0
1699110768.8091767,0.9765625,-7.32421875,-255.859375,-35.15625,0.0
1699110768.8130774,100.09765625,123.53515625,140.13671875,-11.71875,0.0
1699110768.8169782,-56.15234375,-120.1171875,-369.62890625,-30.2734375,0.0
1699110768.820879,-133.30078125,-168.45703125,-600.5859375,-54.19921875,0.0
1699110768.8247797,-45.41015625,-38.57421875,-431.15234375,-37.59765625,0.0
1699110768.8286805,122.0703125,17.578125,-73.73046875,9.27734375,0.0
1699110768.8325813,9.27734375,17.578125,-41.50390625,-9.765625,0.0
1699110768.836482,-121.09375,-86.42578125,-445.80078125,-37.109375,0.0
1699110768.8403828,-71.2890625,-122.0703125,-573.2421875,-27.34375,0.0
1699110768.8443446,95.703125,124.0234375,14.16015625,-4.8828125,0.0
1699110768.8482454,71.77734375,130.859375,212.40234375,-6.34765625,0.0
1699110768.8521461,-109.86328125,-115.234375,-371.09375,-39.55078125,0.0
1699110768.856047,-118.1640625,-176.7578125,-628.90625,-46.38671875,0.0
1699110768.859948,46.875,0.9765625,-218.26171875,-15.625,0.0
1699110768.8638487,105.95703125,77.1484375,164.55078125,1.953125,0.0
1699110768.8677495,-81.0546875,-133.30078125,-391.11328125,-28.3203125,0.0
1699110768.8716502,-130.859375,-250.0,-752.44140625,-41.015625,0.0
1699110768.875551,-18.5546875,-62.98828125,-364.2578125,-25.87890625,0.0
1699110768.8794518,106.93359375,243.65234375,283.203125,-4.8828125,0.0
1699110768.8833525,-48.33984375,2.44140625,-108.88671875,-21.484375,0.0
1699110768.8872533,-158.203125,-224.609375,-687.5,-44.921875,0.0
1699110768.8912067,-88.8671875,-56.640625,-464.84375,-45.41015625,0.0
1699110768.8951075,80.078125,191.40625,227.5390625,-12.20703125,0.0
1699110768.8990083,-9.27734375,-0.48828125,-21.484375,-17.08984375,0.0
1699110768.902909,-152.83203125,-207.51953125,-557.6171875,-42.96875,0.0
1699110768.90681,-108.88671875,-94.7265625,-521.97265625,-35.64453125,0.0
1699110768.9107108,61.03515625,85.44921875,-56.640625,-12.20703125,0.0
1699110768.9146116,48.33984375,32.71484375,58.10546875,-8.30078125,0.0
1699110768.9185123,-131.34765625,-291.9921875,-624.0234375,-28.80859375,0.0
1699110768.922413,-142.578125,-161.62109375,-685.05859375,-41.015625,0.0
1699110768.9263139,4.8828125,153.80859375,-95.21484375,-30.76171875,0.0
1699110768.9302146,83.0078125,145.01953125,236.81640625,-18.5546875,0.0
1699110768.9341154,-97.65625,-80.56640625,-310.546875,-44.921875,0.0
1699110768.938061,-163.0859375,-130.859375,-590.33203125,-56.15234375,0.0
1699110768.9419618,-58.10546875,4.8828125,-301.7578125,-49.8046875,0.0
1699110768.9458628,86.9140625,129.8828125,201.171875,-26.85546875,0.0
1699110768.9497635,-49.8046875,-21.97265625,-97.65625,-32.71484375,0.0
1699110768.9536643,-154.78515625,-155.2734375,-573.73046875,-52.734375,0.0
1699110768.957565,-70.80078125,-116.2109375,-536.1328125,-47.8515625,0.0
1699110768.9614658,107.91015625,72.265625,8.30078125,-13.18359375,0.0
1699110768.9653666,41.50390625,30.2734375,-22.94921875,-9.27734375,0.0
1699110768.9692676,-108.88671875,-60.546875,-442.87109375,-32.71484375,0.0
1699110768.9731684,-76.171875,-57.12890625,-536.62109375,-30.76171875,0.0
1699110768.9770691,95.21484375,26.85546875,-257.32421875,-1.953125,0.0
1699110768.98097,113.76953125,114.74609375,138.18359375,5.859375,0.0
1699110768.984952,-74.21875,-21.484375,-274.90234375,-28.80859375,0.0
1699110768.9888527,-96.19140625,-115.72265625,-596.19140625,-40.0390625,0.0
1699110768.9927535,43.45703125,-18.5546875,-307.12890625,-16.11328125,0.0
1699110768.9966543,138.671875,154.78515625,216.796875,10.25390625,0.0
1699110769.0005553,-43.9453125,-19.04296875,-217.7734375,-16.6015625,0.0
1699110769.004456,-122.55859375,-219.23828125,-702.63671875,-33.203125,0.0
1699110769.0083568,-24.4140625,-200.1953125,-583.0078125,-12.20703125,0.0
1699110769.0122576,127.44140625,158.69140625,141.6015625,6.8359375,0.0
1699110769.0161583,3.90625,102.5390625,-6.34765625,-9.765625,0.0
1699110769.020059,-128.41796875,-153.80859375,-607.91015625,-25.390625,0.0
1699110769.02396,-79.1015625,-77.1484375,-486.328125,-19.04296875,0.0
1699110769.0278609,92.7734375,197.265625,221.6796875,4.39453125,0.0
1699110769.0318012,39.55078125,88.8671875,113.28125,2.9296875,0.0
1699110769.035702,-121.58203125,-190.4296875,-513.671875,-24.4140625,0.0
1699110769.0396028,-109.86328125,-119.140625,-572.265625,-33.203125,0.0
1699110769.0435035,44.921875,128.41796875,-41.015625,-20.5078125,0.0
1699110769.0474045,92.7734375,118.1640625,245.1171875,-8.30078125,0.0
1699110769.0513053,-90.8203125,-182.6171875,-422.8515625,-24.4140625,0.0
1699110769.055206,-134.27734375,-226.5625,-721.6796875,-37.109375,0.0
1699110769.0591068,-10.25390625,3.90625,-293.9453125,-16.6015625,0.0
1699110769.0630076,108.88671875,220.703125,274.90234375,10.25390625,0.0
1699110769.0669086,-48.828125,-119.140625,-354.98046875,-17.578125,0.0
1699110769.0708094,-142.578125,-274.90234375,-796.38671875,-41.9921875,0.0
1699110769.0747101,-60.546875,37.59765625,-387.20703125,-32.2265625,0.0
1699110769.0786872,109.86328125,212.890625,213.8671875,3.41796875,0.0
1699110769.082588,11.23046875,-20.99609375,-125.0,-7.8125,0.0
1699110769.086489,-127.44140625,-126.953125,-552.24609375,-34.1796875,0.0
1699110769.0903897,-84.47265625,-47.36328125,-496.09375,-31.73828125,0.0
1699110769.0942905,83.984375,67.87109375,-68.84765625,-10.25390625,0.0
1699110769.0981913,62.01171875,-6.34765625,-81.0546875,-6.8359375,0.0
1699110769.1020923,-115.72265625,-119.62890625,-492.1875,-34.1796875,0.0
1699110769.105993,-116.2109375,-35.64453125,-511.23046875,-40.52734375,0.0
1699110769.1098938,43.9453125,65.91796875,-176.26953125,-20.5078125,0.0
1699110769.1137946,110.3515625,18.5546875,46.875,-1.46484375,0.0
1699110769.1176953,-77.63671875,-48.33984375,-320.80078125,-34.1796875,0.0
1699110769.1215963,-138.18359375,-66.89453125,-543.45703125,-50.78125,0.0
1699110769.1255648,-22.4609375,-27.34375,-373.53515625,-31.73828125,0.0
1699110769.1294658,109.375,144.04296875,201.171875,-7.8125,0.0
1699110769.1333666,-44.43359375,22.94921875,-67.3828125,-27.83203125,0.0
1699110769.1372674,-149.4140625,-121.58203125,-555.6640625,-50.78125,0.0
1699110769.141168,-74.70703125,-113.76953125,-521.484375,-41.9921875,0.0
1699110769.1450691,87.40234375,75.68359375,44.921875,-12.6953125,0.0
1699110769.14897,-5.37109375,14.16015625,-32.2265625,-23.4375,0.0
1699110769.1528707,-158.203125,-176.7578125,-560.05859375,-44.921875,0.0
1699110769.1567714,-122.0703125,-180.17578125,-690.91796875,-34.1796875,0.0
1699110769.1606724,48.828125,79.58984375,-120.60546875,-10.7421875,0.0
1699110769.1645732,49.31640625,198.73046875,278.3203125,-15.13671875,0.0
1699110769.168474,-136.23046875,-86.42578125,-337.890625,-49.31640625,0.0
1699110769.1724355,-155.76171875,-184.08203125,-704.1015625,-59.5703125,0.0
1699110769.1763363,-15.625,56.640625,-193.359375,-45.41015625,0.0
1699110769.180237,66.89453125,185.05859375,307.6171875,-25.390625,0.0
1699110769.1841378,-104.98046875,-83.49609375,-270.5078125,-46.875,0.0
1699110769.1880388,-175.29296875,-220.703125,-641.6015625,-64.453125,0.0
1699110769.1919396,-73.2421875,-86.42578125,-429.6875,-55.17578125,0.0
1699110769.1958404,82.51953125,163.57421875,185.05859375,-31.73828125,0.0
1699110769.1997411,-47.8515625,-0.9765625,-60.05859375,-45.41015625,0.0
1699110769.2036421,-164.0625,-321.2890625,-748.046875,-61.03515625,0.0
1699110769.207543,-89.84375,-122.55859375,-594.7265625,-47.36328125,0.0
1699110769.2114437,92.7734375,215.33203125,134.765625,-19.04296875,0.0
1699110769.2153444,39.0625,68.359375,29.78515625,-23.4375,0.0
1699110769.2192974,-123.046875,-136.71875,-492.67578125,-45.41015625,0.0
1699110769.2231982,-110.3515625,-72.265625,-537.59765625,-44.43359375,0.0
1699110769.227099,57.6171875,119.140625,-38.57421875,-22.4609375,0.0
1699110769.2309997,98.6328125,108.88671875,193.359375,-9.27734375,0.0
1699110769.2349007,-83.49609375,-128.41796875,-412.109375,-37.59765625,0.0
1699110769.2388015,-123.046875,-183.59375,-676.7578125,-49.8046875,0.0
1699110769.2427022,16.6015625,-0.48828125,-307.12890625,-25.390625,0.0
1699110769.246603,125.0,95.703125,123.53515625,-6.8359375,0.0
1699110769.250504,-50.78125,-99.609375,-320.80078125,-27.83203125,0.0
1699110769.2544048,-133.7890625,-60.546875,-545.8984375,-43.9453125,0.0
1699110769.2583055,-39.0625,32.2265625,-339.35546875,-30.76171875,0.0
1699110769.2622066,113.28125,104.00390625,142.578125,-4.8828125,0.0
1699110769.2661622,-9.27734375,-32.71484375,-121.09375,-26.3671875,0.0
1699110769.2700632,-141.11328125,-116.2109375,-527.83203125,-51.7578125,0.0
1699110769.273964,-89.84375,-65.91796875,-486.81640625,-47.8515625,0.0
1699110769.2778647,86.42578125,84.47265625,-36.62109375,-21.484375,0.0
1699110769.2817657,51.7578125,40.0390625,38.0859375,-27.34375,0.0
1699110769.2856665,-124.0234375,-177.734375,-516.11328125,-58.59375,0.0
1699110769.2895672,-123.53515625,-187.5,-680.6640625,-59.08203125,0.0
1699110769.293468,37.109375,-61.5234375,-359.86328125,-26.85546875,0.0
1699110769.297369,83.0078125,154.78515625,185.546875,-17.578125,0.0
1699110769.3012698,-107.91015625,-2.9296875,-243.65234375,-54.19921875,0.0
1699110769.3051705,-149.90234375,-159.66796875,-657.71484375,-55.17578125,0.0
1699110769.3090715,-19.04296875,13.18359375,-268.5546875,-25.87890625,0.0
1699110769.3130195,105.95703125,199.21875,311.03515625,-4.39453125,0.0
1699110769.3169203,-50.29296875,-26.3671875,-103.515625,-32.71484375,0.0
1699110769.320821,-135.25390625,-239.2578125,-664.55078125,-49.31640625,0.0
1699110769.324722,-61.5234375,-94.7265625,-463.37890625,-45.41015625,0.0
1699110769.3286228,92.7734375,165.52734375,216.796875,-25.390625,0.0
1699110769.3325236,-0.9765625,-9.765625,-55.6640625,-29.296875,0.0
1699110769.3364246,-142.08984375,-237.3046875,-646.97265625,-45.41015625,0.0
1699110769.3403254,-101.07421875,-129.8828125,-580.56640625,-42.48046875,0.0
1699110769.3442261,75.1953125,213.8671875,102.5390625,-17.08984375,0.0
1699110769.3481271,71.77734375,154.78515625,216.796875,-6.34765625,0.0
1699110769.352028,-115.72265625,-171.38671875,-496.58203125,-34.1796875,0.0
1699110769.3559287,-134.765625,-136.23046875,-629.39453125,-41.50390625,0.0
1699110769.3599133,23.92578125,104.4921875,-83.984375,-27.34375,0.0
1699110769.363814,97.16796875,145.5078125,264.16015625,-17.578125,0.0
1699110769.3677151,-89.35546875,-150.87890625,-358.3984375,-41.50390625,0.0
1699110769.371616,-144.04296875,-168.9453125,-615.72265625,-48.828125,0.0
1699110769.3755167,-29.78515625,7.8125,-265.625,-33.69140625,0.0
1699110769.3794177,102.5390625,78.61328125,184.08203125,-12.20703125,0.0
1699110769.3833184,-41.015625,-205.56640625,-394.04296875,-20.99609375,0.0
1699110769.3872192,-151.3671875,-161.62109375,-656.25,-35.64453125,0.0
1699110769.3911202,-83.49609375,59.08203125,-332.51953125,-36.1328125,0.0
1699110769.395021,90.8203125,150.87890625,198.2421875,-7.32421875,0.0
1699110769.3989217,7.8125,41.9921875,114.74609375,-16.11328125,0.0
1699110769.4028227,-147.4609375,-96.6796875,-438.96484375,-43.45703125,0.0
1699110769.4067545,-114.2578125,-82.51953125,-515.13671875,-37.59765625,0.0
1699110769.4106553,52.734375,77.63671875,-16.6015625,-15.13671875,0.0
1699110769.4145563,72.265625,99.609375,226.5625,-3.90625,0.0
1699110769.418457,-110.83984375,-93.26171875,-350.09765625,-31.73828125,0.0
1699110769.4223578,-136.71875,-151.3671875,-611.81640625,-43.45703125,0.0
1699110769.4262588,9.765625,-51.7578125,-305.17578125,-19.04296875,0.0
1699110769.4301596,119.62890625,93.75,128.90625,-2.9296875,0.0
1699110769.4340603,-55.6640625,-66.40625,-312.5,-40.0390625,0.0
1699110769.4379613,-141.6015625,-166.50390625,-642.08984375,-56.15234375,0.0
1699110769.441862,-34.66796875,-106.4453125,-517.578125,-28.3203125,0.0
1699110769.4457629,121.58203125,134.765625,41.015625,5.859375,0.0
1699110769.4496639,-7.32421875,112.79296875,21.97265625,-18.06640625,0.0
1699110769.453632,-127.9296875,-120.1171875,-546.875,-43.9453125,0.0
1699110769.457533,-68.359375,-122.0703125,-573.2421875,-36.1328125,0.0
1699110769.461434,108.3984375,167.96875,179.19921875,-10.7421875,0.0
1699110769.4653347,59.08203125,130.859375,214.84375,-11.23046875,0.0
1699110769.4692354,-100.09765625,-147.4609375,-435.546875,-35.15625,0.0
1699110769.4731364,-84.47265625,-227.05078125,-671.38671875,-32.71484375,0.0
1699110769.4770372,69.82421875,66.40625,-136.23046875,-3.41796875,0.0
1699110769.480938,111.328125,217.28515625,301.7578125,5.859375,0.0
1699110769.484839,-74.21875,-122.0703125,-347.65625,-21.97265625,0.0
1699110769.4887397,-115.234375,-307.6171875,-779.296875,-26.3671875,0.0
1699110769.4926405,12.20703125,-25.87890625,-381.34765625,-8.30078125,0.0
1699110769.4965415,123.53515625,171.875,219.23828125,11.23046875,0.0
1699110769.5005126,-54.6875,-47.36328125,-174.31640625,-16.6015625,0.0
1699110769.5044134,-149.4140625,-126.46484375,-585.9375,-37.109375,0.0
1699110769.5083141,-57.12890625,6.34765625,-367.67578125,-29.78515625,0.0
1699110769.5122151,103.515625,180.17578125,219.7265625,-0.48828125,0.0
1699110769.516116,-11.71875,-15.13671875,-66.40625,-4.39453125,0.0
1699110769.520017,-155.2734375,-210.44921875,-598.14453125,-33.69140625,0.0
1699110769.5239177,-108.88671875,-129.39453125,-582.51953125,-35.15625,0.0
1699110769.5278184,69.82421875,113.76953125,-25.390625,-4.8828125,0.0
1699110769.5317194,37.59765625,15.13671875,-12.20703125,-8.7890625,0.0
1699110769.5356202,-145.01953125,-186.03515625,-514.16015625,-39.0625,0.0
1699110769.5395212,-140.625,-29.296875,-532.2265625,-44.43359375,0.0
1699110769.543422,20.01953125,124.0234375,-116.69921875,-26.3671875,0.0
1699110769.547385,84.47265625,108.3984375,210.44921875,-14.6484375,0.0
1699110769.551286,-99.609375,-104.98046875,-341.796875,-41.015625,0.0
1699110769.5551867,-150.87890625,-131.34765625,-608.88671875,-49.31640625,0.0
1699110769.5590878,-30.2734375,16.6015625,-279.296875,-35.15625,0.0
1699110769.5629885,91.796875,103.515625,120.60546875,-17.08984375,0.0
1699110769.5668893,-55.17578125,-99.12109375,-306.640625,-36.1328125,0.0
1699110769.5707903,-153.3203125,-144.04296875,-574.70703125,-55.6640625,0.0
1699110769.574691,-78.61328125,-45.8984375,-454.1015625,-45.41015625,0.0
1699110769.578592,88.8671875,1.46484375,-136.23046875,-7.32421875,0.0
1699110769.5824928,0.9765625,43.45703125,-1.46484375,-13.671875,0.0
1699110769.5863936,-151.3671875,-67.3828125,-416.015625,-47.8515625,0.0
1699110769.5902946,-116.69921875,-129.39453125,-604.4921875,-51.26953125,0.0
1699110769.5942497,58.59375,111.81640625,-21.97265625,-17.578125,0.0
1699110769.5981507,55.17578125,152.83203125,282.71484375,-4.8828125,0.0
1699110769.6020515,-125.9765625,-104.98046875,-335.9375,-36.1328125,0.0
1699110769.6059525,-130.859375,-184.08203125,-632.8125,-47.36328125,0.0
1699110769.6098533,24.4140625,0.48828125,-209.9609375,-23.92578125,0.0
1699110769.613754,100.09765625,114.2578125,200.1953125,-5.859375,0.0
1699110769.617655,-78.61328125,-98.14453125,-342.7734375,-28.3203125,0.0
1699110769.6215558,-145.01953125,-236.81640625,-727.5390625,-39.0625,0.0
1699110769.6254568,-41.50390625,-91.30859375,-404.296875,-19.04296875,0.0
1699110769.6293576,117.1875,248.046875,299.8046875,7.32421875,0.0
1699110769.6332586,-9.27734375,46.38671875,-41.015625,-13.18359375,0.0
1699110769.6371593,-132.8125,-206.54296875,-663.0859375,-42.96875,0.0
1699110769.6411068,-72.265625,-62.5,-461.42578125,-32.2265625,0.0
1699110769.6450078,105.46875,182.6171875,239.74609375,0.9765625,0.0
1699110769.6489086,37.59765625,51.7578125,101.5625,-6.8359375,0.0
1699110769.6528096,-121.58203125,-180.6640625,-509.27734375,-30.2734375,0.0
1699110769.6567104,-96.6796875,-101.5625,-560.546875,-38.57421875,0.0
1699110769.6606114,72.75390625,83.984375,-98.6328125,-13.18359375,0.0
1699110769.6645122,100.09765625,48.33984375,146.484375,-6.34765625,0.0
1699110769.668413,-86.9140625,-250.9765625,-526.85546875,-34.1796875,0.0
1699110769.672314,-125.48828125,-120.60546875,-641.6015625,-44.921875,0.0
1699110769.6762147,5.859375,138.18359375,-110.83984375,-30.76171875,0.0
1699110769.6801157,111.81640625,147.94921875,263.671875,-8.7890625,0.0
1699110769.6840165,-60.05859375,-76.66015625,-271.484375,-31.73828125,0.0
1699110769.6879666,-139.16015625,-130.37109375,-574.21875,-46.875,0.0
1699110769.6918674,-46.38671875,-9.27734375,-334.47265625,-31.25,0.0
1699110769.6957684,101.07421875,137.20703125,204.1015625,-8.7890625,0.0
1699110769.6996691,-15.625,-3.41796875,1.46484375,-31.25,0.0
1699110769.70357,-143.06640625,-195.80078125,-587.890625,-47.8515625,0.0
1699110769.707471,-96.6796875,-144.53125,-598.14453125,-37.109375,0.0
1699110769.7113717,68.84765625,62.5,-21.97265625,-13.671875,0.0
1699110769.7152727,28.3203125,41.9921875,52.734375,-18.5546875,0.0
1699110769.7191734,-146.484375,-69.82421875,-391.6015625,-52.734375,0.0
1699110769.7230744,-141.11328125,-98.14453125,-547.8515625,-54.19921875,0.0
1699110769.7269752,30.2734375,3.90625,-255.859375,-19.53125,0.0
1699110769.7308762,79.58984375,138.18359375,203.61328125,-10.25390625,0.0
1699110769.7348626,-103.515625,-22.94921875,-232.421875,-41.50390625,0.0
1699110769.7387633,-144.53125,-152.34375,-606.93359375,-52.734375,0.0
1699110769.7426643,-30.2734375,-62.5,-375.0,-35.15625,0.0
1699110769.746565,97.65625,166.015625,246.58203125,-5.859375,0.0
1699110769.750466,-54.19921875,2.9296875,-51.26953125,-29.296875,0.0
1699110769.7543669,-156.73828125,-229.98046875,-656.25,-54.6875,0.0
1699110769.7582679,-72.265625,-223.6328125,-623.53515625,-35.64453125,0.0
1699110769.7621686,96.19140625,146.97265625,162.109375,-9.765625,0.0
1699110769.7660697,2.9296875,126.46484375,99.609375,-20.99609375,0.0
1699110769.7699704,-138.671875,-164.0625,-561.03515625,-44.43359375,0.0
1699110769.7738712,-97.16796875,-114.2578125,-537.59765625,-43.9453125,0.0
1699110769.7777722,78.125,168.45703125,105.46875,-14.6484375,0.0
1699110769.781707,61.5234375,101.07421875,170.8984375,-17.08984375,0.0
1699110769.785608,-114.74609375,-182.12890625,-480.46875,-42.96875,0.0
1699110769.7895088,-123.046875,-118.65234375,-609.375,-48.33984375,0.0
1699110769.7934098,28.3203125,132.32421875,-78.125,-36.62109375,0.0
1699110769.7973106,98.14453125,151.3671875,273.92578125,-17.08984375,0.0
1699110769.8012116,-86.9140625,-166.015625,-389.16015625,-33.69140625,0.0
1699110769.8051124,-148.92578125,-211.42578125,-678.7109375,-51.7578125,0.0
1699110769.8090134,-36.62109375,23.4375,-285.15625,-37.109375,0.0
1699110769.8129141,102.5390625,224.12109375,301.7578125,-11.23046875,0.0
1699110769.8168151,-39.0625,-106.93359375,-179.19921875,-22.4609375,0.0
1699110769.820716,-146.484375,-252.9296875,-647.4609375,-43.45703125,0.0
1699110769.824617,-81.54296875,0.9765625,-370.1171875,-40.52734375,0.0
1699110769.828588,92.7734375,174.8046875,228.515625,-9.765625,0.0
1699110769.832489,16.6015625,-1.953125,-26.85546875,-16.6015625,0.0
1699110769.8363898,-144.04296875,-156.25,-531.25,-41.015625,0.0
1699110769.8402908,-113.76953125,-118.1640625,-538.57421875,-38.57421875,0.0
1699110769.8441916,56.640625,75.68359375,-35.15625,-12.20703125,0.0
1699110769.8480926,72.265625,28.3203125,40.0390625,-5.37109375,0.0
1699110769.8519933,-109.86328125,-150.87890625,-450.1953125,-44.43359375,0.0
1699110769.8558943,-136.71875,-96.19140625,-539.0625,-57.12890625,0.0
1699110769.859795,7.32421875,13.18359375,-231.4453125,-31.73828125,0.0
1699110769.863696,106.4453125,6.34765625,45.8984375,-8.7890625,0.0
1699110769.8675969,-70.3125,-82.51953125,-273.4375,-35.64453125,0.0
1699110769.8714979,-141.11328125,-113.28125,-545.41015625,-53.7109375,0.0
1699110769.8754613,-31.25,-53.7109375,-409.66796875,-41.015625,0.0
1699110769.8793623,115.234375,150.390625,220.703125,-18.06640625,0.0
1699110769.8832633,-15.625,16.6015625,-27.34375,-37.109375,0.0
1699110769.887164,-133.30078125,-156.25,-545.8984375,-60.05859375,0.0
1699110769.8910651,-73.73046875,-132.32421875,-547.8515625,-59.08203125,0.0
1699110769.894966,106.4453125,61.03515625,-30.76171875,-28.80859375,0.0
1699110769.898867,58.10546875,37.59765625,8.30078125,-28.3203125,0.0
1699110769.9027677,-108.88671875,-151.3671875,-534.1796875,-56.640625,0.0
1699110769.9066687,-100.09765625,-179.19921875,-676.7578125,-61.5234375,0.0
1699110769.9105694,62.98828125,47.36328125,-145.01953125,-27.34375,0.0
1699110769.9144704,102.05078125,176.7578125,253.41796875,-12.6953125,0.0
1699110769.9183712,-92.7734375,-80.078125,-326.171875,-48.33984375,0.0
1699110769.9223378,-140.13671875,-178.22265625,-693.359375,-58.10546875,0.0
1699110769.9262388,-4.8828125,56.15234375,-226.5625,-32.71484375,0.0
1699110769.9301395,104.98046875,222.65625,327.63671875,-16.6015625,0.0
1699110769.9340405,-74.70703125,-68.84765625,-196.2890625,-43.9453125,0.0
1699110769.9379413,-162.59765625,-222.16796875,-631.34765625,-54.6875,0.0
1699110769.9418423,-67.87109375,-100.5859375,-464.84375,-43.45703125,0.0
1699110769.945743,86.9140625,167.48046875,209.9609375,-18.5546875,0.0
1699110769.949644,-23.92578125,18.06640625,11.23046875,-25.87890625,0.0
1699110769.953545,-157.2265625,-354.4921875,-740.72265625,-44.43359375,0.0
1699110769.9574459,-108.88671875,-133.30078125,-557.12890625,-42.48046875,0.0
1699110769.9613469,67.3828125,226.5625,189.453125,-13.671875,0.0
1699110769.9652476,39.55078125,81.54296875,159.1796875,-10.7421875,0.0
1699110769.9692054,-136.23046875,-148.92578125,-417.48046875,-46.38671875,0.0
1699110769.9731064,-137.6953125,-105.46875,-540.0390625,-54.19921875,0.0
1699110769.9770072,21.484375,77.1484375,-75.1953125,-29.296875,0.0
1699110769.9809082,95.703125,93.75,247.0703125,-4.39453125,0.0
1699110769.984809,-85.9375,-118.1640625,-328.125,-25.87890625,0.0
1699110769.98871,-144.53125,-197.75390625,-650.87890625,-43.9453125,0.0
1699110769.9926107,-20.5078125,-21.484375,-281.25,-29.296875,0.0
1699110769.9965117,115.72265625,98.6328125,154.78515625,-9.27734375,0.0
1699110770.0004127,-31.25,-85.44921875,-265.13671875,-24.90234375,0.0
1699110770.0043135,-138.671875,-69.3359375,-524.4140625,-49.31640625,0.0
1699110770.0082145,-59.08203125,-9.765625,-385.25390625,-42.96875,0.0
1699110770.0121152,117.1875,89.84375,152.83203125,-9.27734375,0.0
1699110770.0160651,24.90234375,39.55078125,96.19140625,-22.4609375,0.0
1699110770.0199661,-125.0,-82.03125,-402.34375,-47.8515625,0.0
1699110770.0238671,-94.23828125,-104.4921875,-527.34375,-47.8515625,0.0
1699110770.027768,73.73046875,58.10546875,-66.89453125,-25.390625,0.0
1699110770.031669,75.68359375,97.65625,225.5859375,-11.23046875,0.0
1699110770.0355697,-104.4921875,-139.16015625,-389.16015625,-35.15625,0.0
1699110770.0394707,-123.53515625,-189.94140625,-655.76171875,-44.43359375,0.0
1699110770.0433717,23.92578125,-78.125,-368.1640625,-16.6015625,0.0
1699110770.0472724,98.6328125,154.78515625,186.5234375,-3.90625,0.0
1699110770.0511734,-90.33203125,20.5078125,-173.828125,-38.0859375,0.0
1699110770.0550742,-163.57421875,-169.43359375,-632.8125,-60.05859375,0.0
1699110770.0589752,-55.6640625,-25.390625,-325.68359375,-43.45703125,0.0
1699110770.062917,91.796875,193.359375,303.7109375,-8.30078125,0.0
1699110770.0668178,-47.8515625,-19.04296875,-58.59375,-23.4375,0.0
1699110770.0707188,-161.62109375,-221.6796875,-639.6484375,-39.0625,0.0
1699110770.0746195,-97.65625,-81.0546875,-462.890625,-32.2265625,0.0
1699110770.0785205,79.58984375,151.3671875,221.19140625,-0.48828125,0.0
1699110770.0824215,13.671875,-0.9765625,6.34765625,-9.27734375,0.0
1699110770.0863223,-149.4140625,-248.046875,-613.76953125,-31.25,0.0
1699110770.0902233,-129.39453125,-169.921875,-618.1640625,-22.94921875,0.0
1699110770.094124,49.8046875,185.05859375,49.8046875,-3.41796875,0.0
1699110770.098025,74.21875,169.43359375,295.41015625,3.90625,0.0
1699110770.101926,-120.60546875,-193.84765625,-447.75390625,-32.71484375,0.0
1699110770.1058269,-143.06640625,-182.12890625,-652.83203125,-40.52734375,0.0
1699110770.1098046,5.859375,84.47265625,-116.69921875,-18.5546875,0.0
1699110770.1137056,106.4453125,158.203125,289.55078125,-2.44140625,0.0
1699110770.1176066,-66.89453125,-133.30078125,-348.14453125,-30.76171875,0.0
1699110770.1215074,-137.6953125,-169.43359375,-631.8359375,-45.41015625,0.0
1699110770.1254084,-36.62109375,-42.48046875,-380.37109375,-32.71484375,0.0
1699110770.1293092,120.60546875,86.42578125,113.28125,-10.25390625,0.0
1699110770.1332102,1.46484375,-146.97265625,-358.88671875,-18.5546875,0.0
1699110770.1371112,-125.9765625,-152.34375,-644.04296875,-39.55078125,0.0
1699110770.141012,-71.77734375,36.62109375,-402.83203125,-32.2265625,0.0
1699110770.144913,108.3984375,146.97265625,83.984375,1.953125,0.0
1699110770.148814,66.40625,100.5859375,194.82421875,-12.20703125,0.0
1699110770.1527147,-115.234375,-76.171875,-378.90625,-49.31640625,0.0
1699110770.1566517,-111.328125,-86.9140625,-558.59375,-46.875,0.0
1699110770.1605527,50.29296875,60.546875,-105.95703125,-20.01953125,0.0
1699110770.1644537,91.796875,109.86328125,245.1171875,-11.23046875,0.0
1699110770.1683545,-91.30859375,-65.91796875,-284.1796875,-39.55078125,0.0
1699110770.1722555,-134.27734375,-152.83203125,-607.421875,-48.828125,0.0
1699110770.1761565,-13.18359375,-77.1484375,-359.375,-25.87890625,0.0
1699110770.1800573,105.46875,99.609375,134.765625,-2.9296875,0.0
1699110770.1839583,-59.5703125,-58.59375,-271.97265625,-28.3203125,0.0
1699110770.1878593,-156.25,-140.13671875,-585.44921875,-47.36328125,0.0
1699110770.19176,-71.77734375,-104.00390625,-523.4375,-34.66796875,0.0
1699110770.195661,90.8203125,109.375,-7.32421875,-7.8125,0.0
1699110770.199562,-7.32421875,117.1875,89.35546875,-28.3203125,0.0
1699110770.2035344,-149.90234375,-124.0234375,-486.328125,-54.19921875,0.0
1699110770.2074351,-113.76953125,-143.5546875,-603.02734375,-38.0859375,0.0
1699110770.2113361,66.40625,131.8359375,105.46875,-12.20703125,0.0
1699110770.2152371,61.03515625,140.625,276.3671875,-16.11328125,0.0
1699110770.219138,-122.55859375,-139.6484375,-371.09375,-38.57421875,0.0
1699110770.223039,-126.46484375,-220.703125,-673.828125,-45.8984375,0.0
1699110770.22694,35.15625,32.71484375,-183.59375,-24.4140625,0.0
1699110770.2308407,103.02734375,211.9140625,336.9140625,-5.859375,0.0
1699110770.2347417,-81.0546875,-88.37890625,-285.15625,-30.2734375,0.0
1699110770.2386427,-134.765625,-300.29296875,-782.2265625,-36.62109375,0.0
1699110770.2425435,-17.578125,-36.1328125,-412.109375,-20.99609375,0.0
1699110770.2464445,121.09375,214.84375,277.34375,-2.9296875,0.0
1699110770.2504094,-20.01953125,-30.2734375,-109.86328125,-22.4609375,0.0
1699110770.2543104,-139.16015625,-166.015625,-582.03125,-46.38671875,0.0
1699110770.2582114,-74.21875,-36.1328125,-402.34375,-42.96875,0.0
1699110770.2621121,102.05078125,161.62109375,225.09765625,-10.7421875,0.0
1699110770.2660131,21.484375,-23.4375,-30.2734375,-20.01953125,0.0
1699110770.2699142,-124.0234375,-244.62890625,-609.86328125,-48.33984375,0.0
1699110770.2738152,-95.21484375,-148.92578125,-596.19140625,-51.7578125,0.0
1699110770.277716,70.3125,121.58203125,-34.66796875,-24.90234375,0.0
1699110770.281617,86.9140625,52.734375,95.21484375,-11.23046875,0.0
1699110770.285518,-105.95703125,-180.17578125,-452.63671875,-40.52734375,0.0
1699110770.2894187,-128.41796875,-52.24609375,-530.2734375,-51.26953125,0.0
1699110770.2933197,16.6015625,96.19140625,-131.34765625,-33.203125,0.0
1699110770.2972775,104.4921875,96.6796875,221.19140625,-17.578125,0.0
1699110770.3011785,-77.1484375,-113.28125,-321.77734375,-37.59765625,0.0
1699110770.3050795,-152.34375,-114.74609375,-569.3359375,-56.15234375,0.0
1699110770.3089802,-41.015625,7.8125,-308.59375,-38.57421875,0.0
1699110770.3128812,104.00390625,119.140625,177.24609375,-7.8125,0.0
1699110770.3167822,-33.203125,-83.984375,-173.33984375,-28.3203125,0.0
1699110770.320683,-155.2734375,-189.453125,-601.07421875,-57.12890625,0.0
1699110770.324584,-101.5625,-73.73046875,-504.39453125,-54.19921875,0.0
1699110770.328485,76.66015625,-13.18359375,-190.91796875,-18.06640625,0.0
1699110770.3323858,24.90234375,39.55078125,41.015625,-28.80859375,0.0
1699110770.3362868,-140.13671875,-100.09765625,-414.55078125,-56.640625,0.0
1699110770.3401878,-113.28125,-153.80859375,-671.875,-39.0625,0.0
1699110770.3441482,61.03515625,114.2578125,-77.63671875,-8.7890625,0.0
1699110770.348049,81.54296875,186.03515625,311.03515625,-19.04296875,0.0
1699110770.35195,-109.375,-77.1484375,-285.15625,-63.4765625,0.0
1699110770.355851,-137.6953125,-201.66015625,-660.15625,-59.08203125,0.0
1699110770.3597517,5.859375,-33.203125,-286.62109375,-22.4609375,0.0
1699110770.3636527,118.65234375,137.6953125,211.9140625,-0.9765625,0.0
1699110770.3675537,-60.05859375,-67.3828125,-316.89453125,-34.1796875,0.0
1699110770.3714547,-148.4375,-229.98046875,-734.375,-50.78125,0.0
1699110770.3753555,-52.734375,-99.609375,-456.54296875,-27.34375,0.0
1699110770.3792565,111.81640625,256.8359375,271.484375,-5.859375,0.0
1699110770.3831575,1.953125,70.3125,41.50390625,-26.85546875,0.0
1699110770.3870583,-138.18359375,-203.61328125,-612.79296875,-46.875,0.0
1699110770.3910112,-98.6328125,-92.28515625,-512.20703125,-43.9453125,0.0
1699110770.3949122,78.125,158.203125,136.71875,-7.32421875,0.0
1699110770.3988132,57.6171875,74.70703125,182.12890625,2.44140625,0.0
1699110770.402714,-113.76953125,-201.66015625,-474.609375,-35.64453125,0.0
1699110770.406615,-116.2109375,-143.5546875,-608.3984375,-49.31640625,0.0
1699110770.410516,41.015625,40.52734375,-130.859375,-22.4609375,0.0
1699110770.414417,92.28515625,67.3828125,185.546875,-4.8828125,0.0
1699110770.4183178,-93.26171875,-220.21484375,-472.65625,-23.4375,0.0
1699110770.4222188,-146.484375,-139.6484375,-627.9296875,-38.57421875,0.0
1699110770.4261198,-18.5546875,103.515625,-163.57421875,-21.484375,0.0
1699110770.4300208,114.2578125,154.78515625,263.671875,11.23046875,0.0
1699110770.4339216,-42.48046875,-50.78125,-211.42578125,-12.20703125,0.0
1699110770.4378662,-142.08984375,-125.9765625,-560.546875,-36.1328125,0.0
1699110770.4417672,-67.3828125,-27.83203125,-370.1171875,-27.34375,0.0
1699110770.4456682,104.4921875,117.1875,180.17578125,0.0,0.0
1699110770.449569,14.16015625,11.23046875,49.8046875,-14.6484375,0.0
1699110770.45347,-129.39453125,-179.6875,-534.1796875,-43.45703125,0.0
1699110770.457371,-79.58984375,-143.06640625,-588.37890625,-29.296875,0.0
1699110770.461272,98.14453125,38.0859375,-83.984375,3.90625,0.0
1699110770.4651728,80.078125,19.04296875,62.5,-2.44140625,0.0
1699110770.4690738,-100.09765625,-71.77734375,-384.27734375,-40.0390625,0.0
1699110770.4729748,-112.3046875,-132.8125,-632.8125,-41.9921875,0.0
1699110770.4768758,31.25,8.30078125,-246.58203125,-17.578125,0.0
1699110770.4807765,114.2578125,178.7109375,295.41015625,-5.859375,0.0
1699110770.4847567,-73.2421875,-28.80859375,-190.91796875,-36.62109375,0.0
1699110770.4886577,-148.4375,-163.0859375,-601.5625,-56.15234375,0.0
1699110770.4925587,-40.0390625,-67.87109375,-416.50390625,-39.0625,0.0
1699110770.4964595,101.5625,170.8984375,237.79296875,-13.18359375,0.0
1699110770.5003605,-28.80859375,6.34765625,-24.90234375,-31.73828125,0.0
1699110770.5042615,-145.01953125,-245.60546875,-646.97265625,-55.6640625,0.0
1699110770.5081625,-87.40234375,-238.76953125,-630.859375,-49.8046875,0.0
1699110770.5120635,78.125,143.06640625,163.0859375,-20.5078125,0.0
1699110770.5159643,6.34765625,150.87890625,183.10546875,-33.69140625,0.0
1699110770.5198653,-143.06640625,-147.4609375,-479.4921875,-56.15234375,0.0
1699110770.5237663,-114.74609375,-127.9296875,-548.828125,-46.875,0.0
1699110770.5276673,59.08203125,117.67578125,36.1328125,-17.578125,0.0
1699110770.5316067,81.0546875,83.49609375,196.77734375,-5.37109375,0.0
1699110770.5355077,-110.3515625,-160.64453125,-427.24609375,-41.50390625,0.0
1699110770.5394084,-143.06640625,-124.0234375,-600.09765625,-53.22265625,0.0
1699110770.5433095,4.8828125,72.75390625,-135.25390625,-28.3203125,0.0
1699110770.5472105,110.83984375,134.765625,266.11328125,-6.8359375,0.0
1699110770.5511115,-69.82421875,-125.9765625,-321.2890625,-28.80859375,0.0
1699110770.5550122,-141.11328125,-201.171875,-663.57421875,-49.31640625,0.0
1699110770.5589132,-32.71484375,-28.80859375,-407.2265625,-37.109375,0.0
1699110770.5628142,110.83984375,213.8671875,250.48828125,-6.8359375,0.0
1699110770.5667152,-9.765625,-66.89453125,-127.9296875,-16.11328125,0.0
1699110770.5706162,-132.32421875,-221.19140625,-631.8359375,-44.43359375,0.0
1699110770.574517,-82.51953125,21.484375,-386.71875,-55.17578125,0.0
1699110770.578492,99.609375,172.36328125,197.265625,-28.80859375,0.0
1699110770.582393,53.7109375,27.83203125,25.390625,-23.92578125,0.0
1699110770.586294,-126.46484375,-158.69140625,-512.20703125,-56.15234375,0.0
1699110770.590195,-121.58203125,-126.953125,-564.453125,-58.10546875,0.0
1699110770.594096,51.7578125,87.890625,-82.03125,-24.90234375,0.0
1699110770.5979967,101.07421875,44.43359375,103.02734375,-9.765625,0.0
1699110770.6018977,-93.26171875,-138.671875,-381.34765625,-38.57421875,0.0
1699110770.6057987,-131.34765625,-71.2890625,-517.08984375,-52.24609375,0.0
1699110770.6096997,-0.48828125,13.671875,-271.97265625,-33.69140625,0.0
1699110770.6136007,105.46875,18.5546875,78.61328125,-12.6953125,0.0
1699110770.6175015,-67.3828125,-39.0625,-121.58203125,-43.45703125,0.0
1699110770.6214025,-160.64453125,-106.93359375,-515.13671875,-68.359375,0.0
1699110770.6253695,-65.91796875,-89.35546875,-462.40234375,-50.29296875,0.0
1699110770.6292706,92.28515625,143.06640625,191.40625,-14.6484375,0.0
1699110770.6331716,-13.18359375,55.6640625,69.3359375,-28.3203125,0.0
1699110770.6370726,-145.01953125,-142.578125,-484.86328125,-59.08203125,0.0
1699110770.6409736,-100.09765625,-140.625,-557.6171875,-41.9921875,0.0
1699110770.6448743,74.70703125,77.1484375,1.46484375,-3.41796875,0.0
1699110770.6487753,54.19921875,75.1953125,133.7890625,-8.30078125,0.0
1699110770.6526763,-124.0234375,-158.203125,-469.7265625,-38.0859375,0.0
1699110770.6565773,-129.39453125,-212.40234375,-704.1015625,-38.57421875,0.0
1699110770.6604784,37.109375,9.27734375,-184.08203125,-11.23046875,0.0
1699110770.6643794,99.609375,216.796875,335.9375,4.39453125,0.0
1699110770.6682801,-75.1953125,-40.0390625,-264.16015625,-16.6015625,0.0
1699110770.67224,-128.90625,-177.24609375,-668.45703125,-30.2734375,0.0
1699110770.6761408,-25.87890625,20.99609375,-280.2734375,-21.484375,0.0
1699110770.6800418,110.83984375,190.91796875,311.5234375,1.46484375,0.0
1699110770.6839428,-30.2734375,-34.1796875,-67.87109375,-21.484375,0.0
1699110770.6878438,-135.25390625,-215.33203125,-604.4921875,-44.921875,0.0
1699110770.6917448,-57.12890625,-123.53515625,-517.578125,-30.76171875,0.0
1699110770.6956458,108.3984375,176.26953125,204.1015625,-8.30078125,0.0
1699110770.6995468,20.01953125,45.41015625,58.59375,-19.53125,0.0
1699110770.7034476,-129.39453125,-322.75390625,-681.640625,-37.59765625,0.0
1699110770.7073486,-104.98046875,-109.375,-546.38671875,-48.33984375,0.0
1699110770.7112496,69.82421875,206.0546875,141.11328125,-22.4609375,0.0
1699110770.7151506,74.70703125,76.66015625,210.44921875,-14.16015625,0.0
1699110770.7191026,-114.2578125,-151.3671875,-390.625,-46.38671875,0.0
1699110770.7230036,-131.34765625,-114.74609375,-569.82421875,-56.640625,0.0
1699110770.7269046,8.30078125,57.6171875,-114.2578125,-41.015625,0.0
1699110770.7308056,86.9140625,110.83984375,261.71875,-23.4375,0.0
1699110770.7347066,-92.28515625,-114.74609375,-300.78125,-44.43359375,0.0
1699110770.7386076,-172.36328125,-223.14453125,-646.484375,-62.5,0.0
1699110770.7425084,-64.94140625,-55.6640625,-352.5390625,-50.29296875,0.0
1699110770.7464094,87.890625,86.42578125,135.7421875,-17.08984375,0.0
1699110770.7503104,-51.26953125,-94.23828125,-233.3984375,-37.109375,0.0
1699110770.7542114,-161.62109375,-106.93359375,-509.765625,-57.12890625,0.0
1699110770.7581124,-99.609375,-99.609375,-481.93359375,-51.7578125,0.0
1699110770.7620134,76.171875,54.19921875,45.8984375,-25.390625,0.0
1699110770.7659688,21.484375,78.125,186.03515625,-20.99609375,0.0
1699110770.7698696,-146.484375,-100.5859375,-340.8203125,-57.12890625,0.0
1699110770.7737706,-126.46484375,-125.9765625,-544.921875,-62.5,0.0
1699110770.7776716,42.96875,46.38671875,-110.3515625,-33.203125,0.0
1699110770.7815726,63.96484375,132.32421875,271.97265625,-26.85546875,0.0
1699110770.7854736,-120.1171875,-130.859375,-356.4453125,-50.29296875,0.0
1699110770.7893746,-151.85546875,-208.0078125,-658.203125,-56.640625,0.0
1699110770.7932756,-5.859375,-104.00390625,-405.2734375,-31.25,0.0
1699110770.7971766,99.609375,142.08984375,209.9609375,-8.30078125,0.0
1699110770.8010776,-75.1953125,23.4375,-40.52734375,-35.64453125,0.0
1699110770.8049784,-156.25,-179.19921875,-597.65625,-51.26953125,0.0
1699110770.8088794,-57.6171875,-52.734375,-394.04296875,-41.50390625,0.0
1699110770.8128266,102.05078125,186.03515625,280.2734375,-28.80859375,0.0
1699110770.8167276,-9.27734375,-22.4609375,-28.80859375,-33.203125,0.0
1699110770.8206286,-133.30078125,-233.3984375,-632.32421875,-46.875,0.0
1699110770.8245296,-84.47265625,-79.58984375,-491.2109375,-52.24609375,0.0
1699110770.8284307,97.16796875,145.99609375,159.66796875,-19.53125,0.0
1699110770.8323314,63.4765625,39.55078125,98.14453125,-18.06640625,0.0
1699110770.8362324,-110.3515625,-215.33203125,-542.96875,-41.9921875,0.0
1699110770.8401334,-113.76953125,-175.29296875,-631.34765625,-44.921875,0.0
1699110770.8440344,41.50390625,142.08984375,-7.8125,-27.83203125,0.0
1699110770.8479354,89.35546875,167.48046875,327.1484375,-19.04296875,0.0
1699110770.8518364,-90.33203125,-160.15625,-387.20703125,-42.96875,0.0
1699110770.8557374,-144.53125,-159.1796875,-632.8125,-61.5234375,0.0
1699110770.8597202,-35.15625,60.546875,-173.33984375,-57.6171875,0.0
1699110770.863621,94.23828125,155.76171875,288.0859375,-23.4375,0.0
1699110770.867522,-60.05859375,-120.1171875,-311.03515625,-35.64453125,0.0
1699110770.871423,-159.1796875,-189.453125,-631.8359375,-69.82421875,0.0
1699110770.875324,-74.70703125,-60.546875,-388.671875,-57.12890625,0.0
1699110770.879225,79.58984375,75.68359375,87.890625,-20.01953125,0.0
1699110770.883126,-8.30078125,-125.48828125,-250.9765625,-28.3203125,0.0
1699110770.887027,-150.390625,-142.578125,-567.3828125,-57.12890625,0.0
1699110770.890928,-116.69921875,0.0,-412.109375,-61.5234375,0.0
1699110770.894829,70.3125,106.4453125,91.796875,-32.2265625,0.0
1699110770.89873,59.08203125,81.0546875,261.71875,-25.87890625,0.0
1699110770.902631,-124.0234375,-107.421875,-334.47265625,-54.6875,0.0
1699110770.9065626,-130.37109375,-133.7890625,-583.0078125,-60.05859375,0.0
1699110770.9104633,21.484375,20.99609375,-185.546875,-30.76171875,0.0
1699110770.9143643,93.26171875,133.7890625,277.83203125,-12.6953125,0.0
1699110770.9182653,-90.8203125,-58.10546875,-248.046875,-42.96875,0.0
1699110770.9221663,-151.3671875,-176.7578125,-621.58203125,-55.6640625,0.0
1699110770.9260674,-29.296875,-83.49609375,-399.4140625,-36.62109375,0.0
1699110770.9299684,116.69921875,103.02734375,151.3671875,-10.25390625,0.0
1699110770.9338694,-34.1796875,-41.50390625,-163.57421875,-28.3203125,0.0
1699110770.9377704,-144.04296875,-130.37109375,-546.875,-46.38671875,0.0
1699110770.9416714,-62.98828125,-118.65234375,-570.3125,-27.83203125,0.0
1699110770.9455724,104.98046875,84.47265625,-84.47265625,10.25390625,0.0
1699110770.9494734,20.5078125,131.34765625,89.84375,2.44140625,0.0
1699110770.9534411,-132.8125,-108.88671875,-464.35546875,-28.80859375,0.0
1699110770.9573421,-101.07421875,-140.625,-617.1875,-38.57421875,0.0
1699110770.9612432,73.73046875,134.765625,25.87890625,-13.18359375,0.0
1699110770.9651442,79.58984375,167.48046875,305.6640625,-5.859375,0.0
1699110770.9690452,-107.421875,-159.1796875,-398.92578125,-39.55078125,0.0
1699110770.9729462,-131.34765625,-247.55859375,-733.3984375,-45.8984375,0.0
1699110770.9768472,3.90625,30.2734375,-211.42578125,-20.99609375,0.0
1699110770.9807482,99.12109375,229.00390625,339.35546875,-6.34765625,0.0
1699110770.9846492,-76.171875,-77.63671875,-253.90625,-30.76171875,0.0
1699110770.9885502,-150.390625,-336.9140625,-799.8046875,-40.0390625,0.0
1699110770.9924512,-53.7109375,-53.22265625,-415.52734375,-33.203125,0.0
1699110770.9963522,95.21484375,234.86328125,292.96875,-15.13671875,0.0
1699110771.0003338,-26.85546875,-20.5078125,-54.6875,-29.78515625,0.0
1699110771.0042348,-152.34375,-165.0390625,-554.19921875,-52.734375,0.0
1699110771.0081358,-93.75,-53.7109375,-413.57421875,-48.33984375,0.0
1699110771.0120368,83.0078125,147.94921875,217.7734375,-18.5546875,0.0
1699110771.0159378,30.76171875,2.9296875,33.203125,-10.7421875,0.0
1699110771.0198388,-140.13671875,-227.5390625,-553.7109375,-38.57421875,0.0
1699110771.0237398,-128.41796875,-156.73828125,-622.0703125,-42.96875,0.0
1699110771.0276408,32.71484375,120.60546875,-72.75390625,-19.53125,0.0
1699110771.0315418,71.77734375,79.1015625,176.7578125,-8.7890625,0.0
1699110771.0354428,-102.05078125,-194.82421875,-423.33984375,-34.1796875,0.0
1699110771.0393438,-135.7421875,-68.359375,-555.17578125,-52.24609375,0.0
1699110771.0432448,-11.71875,74.70703125,-187.98828125,-31.25,0.0
1699110771.0472074,103.515625,83.984375,201.66015625,-4.8828125,0.0
1699110771.0511084,-54.6875,-70.80078125,-239.2578125,-31.25,0.0
1699110771.0550094,-139.16015625,-118.65234375,-553.22265625,-49.31640625,0.0
1699110771.0589104,-48.33984375,-49.8046875,-380.37109375,-39.0625,0.0
1699110771.0628114,83.49609375,56.15234375,29.296875,-15.625,0.0
1699110771.0667124,-12.6953125,-85.44921875,-208.984375,-22.94921875,0.0
1699110771.0706134,-130.37109375,-158.69140625,-557.6171875,-47.8515625,0.0
1699110771.0745144,-93.26171875,-75.68359375,-518.5546875,-42.96875,0.0
1699110771.0784154,88.8671875,-8.7890625,-228.02734375,-10.25390625,0.0
1699110771.0823164,59.5703125,90.8203125,120.60546875,-12.6953125,0.0
1699110771.0862174,-115.72265625,-31.25,-277.83203125,-34.66796875,0.0
1699110771.0901184,-115.72265625,-135.25390625,-605.95703125,-38.57421875,0.0
1699110771.0940726,33.69140625,62.5,-100.5859375,-24.90234375,0.0
1699110771.0979736,93.26171875,177.734375,334.9609375,-9.765625,0.0
1699110771.1018746,-88.37890625,-94.7265625,-291.9921875,-36.1328125,0.0
1699110771.1057756,-137.20703125,-214.35546875,-661.62109375,-53.7109375,0.0
1699110771.1096766,-21.484375,-41.9921875,-316.89453125,-34.1796875,0.0
1699110771.1135776,102.5390625,117.1875,202.1484375,-12.6953125,0.0
1699110771.1174786,-50.29296875,-56.15234375,-213.37890625,-47.36328125,0.0
1699110771.1213796,-158.203125,-227.5390625,-679.19921875,-65.91796875,0.0
1699110771.1252806,-94.7265625,-123.53515625,-458.984375,-52.734375,0.0
1699110771.1291816,72.75390625,227.05078125,270.01953125,-34.1796875,0.0
1699110771.1330826,-4.8828125,76.171875,113.76953125,-38.0859375,0.0
1699110771.1369836,-153.3203125,-207.51953125,-559.5703125,-55.6640625,0.0
1699110771.1409304,-121.58203125,-114.74609375,-545.8984375,-56.640625,0.0
1699110771.1448314,53.22265625,159.1796875,139.16015625,-28.3203125,0.0
1699110771.1487324,60.05859375,114.74609375,279.78515625,-21.97265625,0.0
1699110771.1526334,-117.1875,-177.734375,-427.734375,-48.33984375,0.0
1699110771.1565344,-136.23046875,-145.5078125,-603.515625,-49.31640625,0.0
1699110771.1604354,21.484375,46.38671875,-138.671875,-26.85546875,0.0
1699110771.1643364,104.98046875,94.23828125,210.44921875,-5.859375,0.0
1699110771.1682374,-76.66015625,-215.33203125,-438.4765625,-25.87890625,0.0
1699110771.1721385,-148.4375,-150.390625,-626.46484375,-42.96875,0.0
1699110771.1760395,-42.48046875,73.73046875,-233.3984375,-28.80859375,0.0
1699110771.1799405,111.81640625,119.62890625,210.44921875,0.48828125,0.0
1699110771.1838415,-21.484375,-24.4140625,-100.09765625,-13.671875,0.0
1699110771.187791,-136.71875,-110.3515625,-520.99609375,-35.64453125,0.0
1699110771.191692,-68.84765625,-48.33984375,-408.69140625,-32.2265625,0.0
1699110771.195593,103.02734375,124.0234375,199.21875,0.0,0.0
1699110771.1994944,31.25,57.6171875,115.234375,-8.30078125,0.0
1699110771.2033954,-127.9296875,-132.8125,-453.61328125,-39.0625,0.0
1699110771.2072964,-104.98046875,-144.04296875,-593.75,-36.62109375,0.0
1699110771.2111974,57.6171875,29.78515625,-165.0390625,-14.16015625,0.0
1699110771.2150984,80.078125,90.33203125,165.0390625,-8.7890625,0.0
1699110771.2189994,-106.4453125,-66.89453125,-322.265625,-40.52734375,0.0
1699110771.2229004,-129.8828125,-157.2265625,-637.6953125,-46.38671875,0.0
1699110771.2268014,7.8125,7.8125,-291.9921875,-21.484375,0.0
1699110771.2307024,101.5625,194.82421875,289.55078125,-1.953125,0.0
1699110771.2346864,-76.171875,-0.48828125,-80.078125,-25.87890625,0.0
1699110771.2385874,-153.80859375,-146.97265625,-553.22265625,-41.015625,0.0
1699110771.2424884,-60.546875,-79.58984375,-446.77734375,-29.296875,0.0
1699110771.2463894,89.35546875,161.62109375,250.48828125,-9.765625,0.0
1699110771.2502904,-27.34375,29.296875,47.8515625,-32.71484375,0.0
1699110771.2541914,-155.2734375,-229.4921875,-606.93359375,-53.7109375,0.0
1699110771.2580924,-102.05078125,-229.00390625,-660.15625,-42.48046875,0.0
1699110771.2619934,72.75390625,143.5546875,83.49609375,-19.04296875,0.0
1699110771.2658947,32.2265625,165.0390625,265.625,-20.5078125,0.0
1699110771.2697957,-138.671875,-136.71875,-395.99609375,-45.41015625,0.0
1699110771.2736967,-132.32421875,-128.41796875,-568.359375,-50.78125,0.0
1699110771.2775977,37.59765625,84.9609375,-63.96484375,-21.97265625,0.0
1699110771.2815318,92.28515625,145.01953125,295.8984375,-12.20703125,0.0
1699110771.2854328,-98.6328125,-89.35546875,-312.01171875,-45.41015625,0.0
1699110771.2893338,-142.08984375,-151.85546875,-593.26171875,-49.8046875,0.0
1699110771.2932348,-9.27734375,35.15625,-208.49609375,-21.97265625,0.0
1699110771.297136,114.2578125,168.45703125,280.76171875,3.41796875,0.0
1699110771.301037,-50.78125,-96.19140625,-212.890625,-24.4140625,0.0
1699110771.304938,-139.6484375,-217.28515625,-633.7890625,-41.9921875,0.0
1699110771.308839,-53.22265625,-29.296875,-365.234375,-25.87890625,0.0
1699110771.31274,105.46875,210.44921875,269.04296875,-5.859375,0.0
1699110771.316641,8.7890625,-45.8984375,-85.44921875,-16.11328125,0.0
1699110771.320542,-130.37109375,-227.05078125,-581.54296875,-34.1796875,0.0
1699110771.324443,-92.7734375,-19.53125,-414.55078125,-28.3203125,0.0
1699110771.3284557,88.37890625,164.0625,125.9765625,1.953125,0.0
1699110771.3323567,85.9375,35.15625,89.35546875,5.859375,0.0
1699110771.3362577,-99.12109375,-169.921875,-485.3515625,-32.2265625,0.0
1699110771.3401587,-112.3046875,-83.0078125,-524.90234375,-41.9921875,0.0
1699110771.3440597,40.52734375,80.078125,-104.98046875,-12.20703125,0.0
1699110771.3479607,110.3515625,39.0625,124.51171875,4.8828125,0.0
1699110771.3518617,-78.61328125,-119.62890625,-340.33203125,-27.83203125,0.0
1699110771.355763,-150.87890625,-83.984375,-520.5078125,-50.29296875,0.0
1699110771.359664,-35.15625,-17.578125,-313.96484375,-31.25,0.0
1699110771.363565,102.5390625,11.23046875,78.61328125,2.9296875,0.0
1699110771.367466,-47.8515625,-27.34375,-83.0078125,-24.90234375,0.0
1699110771.371367,-150.390625,-109.375,-521.97265625,-43.45703125,0.0
1699110771.375339,-80.078125,-98.14453125,-494.140625,-27.83203125,0.0
1699110771.37924,81.0546875,132.8125,153.3203125,-3.90625,0.0
1699110771.383141,3.90625,60.546875,123.046875,-14.6484375,0.0
1699110771.3870423,-145.5078125,-145.01953125,-437.5,-42.96875,0.0
1699110771.3909433,-106.4453125,-168.45703125,-592.28515625,-44.921875,0.0
1699110771.3948443,58.10546875,22.94921875,-127.9296875,-22.4609375,0.0
1699110771.3987453,62.01171875,74.70703125,157.71484375,-13.671875,0.0
1699110771.4026463,-115.234375,-143.06640625,-416.015625,-38.57421875,0.0
1699110771.4065473,-134.765625,-176.26953125,-679.19921875,-50.78125,0.0
1699110771.4104483,12.6953125,63.4765625,-147.94921875,-30.76171875,0.0
1699110771.4143496,108.88671875,208.49609375,348.6328125,-8.30078125,0.0
1699110771.4182506,-61.03515625,-41.50390625,-200.68359375,-31.73828125,0.0
1699110771.422215,-133.30078125,-259.765625,-719.7265625,-49.31640625,0.0
1699110771.426116,-36.62109375,-62.98828125,-389.16015625,-34.66796875,0.0
1699110771.4300172,108.3984375,265.13671875,341.796875,-10.7421875,0.0
1699110771.4339182,-21.97265625,33.69140625,14.16015625,-24.90234375,0.0
1699110771.4378192,-142.08984375,-198.73046875,-557.6171875,-49.8046875,0.0
1699110771.4417202,-79.58984375,-135.25390625,-551.26953125,-35.15625,0.0
1699110771.4456213,87.40234375,136.71875,104.00390625,-8.30078125,0.0
1699110771.4495223,30.76171875,65.4296875,115.234375,-18.06640625,0.0
1699110771.4534235,-125.48828125,-279.296875,-625.0,-40.0390625,0.0
1699110771.4573245,-107.421875,-104.00390625,-573.2421875,-40.52734375,0.0
1699110771.4612255,59.5703125,195.3125,89.84375,-22.4609375,0.0
1699110771.4651265,88.8671875,113.28125,267.08984375,-20.5078125,0.0
1699110771.469083,-103.02734375,-109.86328125,-331.54296875,-51.26953125,0.0
1699110771.472984,-139.6484375,-102.5390625,-561.5234375,-60.05859375,0.0
1699110771.476885,-3.90625,35.15625,-169.43359375,-35.15625,0.0
1699110771.480786,104.00390625,121.58203125,264.6484375,-13.671875,0.0
1699110771.484687,-65.4296875,-95.703125,-268.5546875,-38.57421875,0.0
1699110771.4885883,-151.3671875,-202.1484375,-632.32421875,-47.8515625,0.0
1699110771.4924893,-68.84765625,-61.03515625,-419.921875,-35.15625,0.0
1699110771.4963903,91.30859375,82.03125,83.49609375,-7.32421875,0.0
1699110771.5002913,-16.6015625,-54.19921875,-208.984375,-9.765625,0.0
1699110771.5041924,-156.73828125,-90.8203125,-527.34375,-43.9453125,0.0
1699110771.5080934,-107.421875,-87.890625,-515.13671875,-47.36328125,0.0
1699110771.5119946,74.21875,76.171875,18.5546875,-17.578125,0.0
1699110771.5159438,44.921875,108.88671875,253.90625,-25.87890625,0.0
1699110771.5198448,-118.65234375,-84.9609375,-319.3359375,-52.24609375,0.0
1699110771.5237458,-114.74609375,-142.08984375,-575.68359375,-46.875,0.0
1699110771.527647,37.109375,18.5546875,-152.83203125,-28.3203125,0.0
1699110771.531548,88.8671875,145.5078125,291.015625,-23.92578125,0.0
1699110771.535449,-85.9375,-113.76953125,-330.078125,-43.9453125,0.0
1699110771.53935,-125.9765625,-223.14453125,-695.3125,-48.33984375,0.0
1699110771.543251,-0.48828125,-125.48828125,-471.6796875,-27.34375,0.0
1699110771.5471523,130.859375,170.8984375,212.40234375,-5.37109375,0.0
1699110771.5510533,-25.87890625,57.12890625,-22.4609375,-26.3671875,0.0
1699110771.5549543,-126.953125,-167.48046875,-575.1953125,-45.8984375,0.0
1699110771.5588553,-47.36328125,-55.6640625,-401.3671875,-39.0625,0.0
1699110771.562798,124.51171875,175.78125,255.859375,-0.9765625,0.0
1699110771.566699,36.1328125,-18.06640625,-4.8828125,-1.46484375,0.0
1699110771.5706003,-123.53515625,-205.56640625,-603.02734375,-28.3203125,0.0
1699110771.5745013,-93.75,-61.03515625,-483.3984375,-38.0859375,0.0
1699110771.5784023,89.84375,133.7890625,118.65234375,-8.30078125,0.0
1699110771.5823033,81.54296875,58.59375,159.66796875,3.90625,0.0
1699110771.5862043,-103.02734375,-194.82421875,-458.49609375,-26.3671875,0.0
1699110771.5901055,-117.67578125,-166.50390625,-593.26171875,-35.64453125,0.0
1699110771.5940065,29.296875,133.30078125,-44.43359375,-8.30078125,0.0
1699110771.5979075,105.95703125,179.6875,347.16796875,10.7421875,0.0
1699110771.6018085,-76.171875,-152.83203125,-333.49609375,-20.5078125,0.0
1699110771.6057096,-139.6484375,-165.0390625,-599.609375,-41.9921875,0.0
1699110771.609686,-27.83203125,35.64453125,-206.54296875,-31.73828125,0.0
1699110771.613587,104.00390625,143.5546875,297.36328125,-5.37109375,0.0
1699110771.6174881,-40.52734375,-86.9140625,-142.08984375,-21.97265625,0.0
1699110771.6213892,-148.92578125,-205.078125,-583.49609375,-50.78125,0.0
1699110771.6252902,-86.42578125,-91.30859375,-386.23046875,-42.96875,0.0
1699110771.6291912,77.63671875,72.265625,105.46875,-20.5078125,0.0
1699110771.6330924,4.39453125,-100.5859375,-178.7109375,-26.85546875,0.0
1699110771.6369934,-154.78515625,-155.76171875,-540.0390625,-55.6640625,0.0
1699110771.6408944,-125.0,-25.87890625,-425.78125,-62.01171875,0.0
1699110771.6447954,52.734375,98.6328125,70.3125,-36.1328125,0.0
1699110771.6486967,62.5,82.03125,283.69140625,-21.484375,0.0
1699110771.6525977,-124.0234375,-103.02734375,-305.6640625,-45.8984375,0.0
1699110771.656545,-142.578125,-137.6953125,-553.7109375,-51.7578125,0.0
1699110771.660446,-7.32421875,-9.27734375,-215.8203125,-27.34375,0.0
1699110771.6643472,86.42578125,133.30078125,290.52734375,-12.6953125,0.0
1699110771.6682482,-92.28515625,-51.26953125,-124.51171875,-41.50390625,0.0
1699110771.6721492,-166.50390625,-182.12890625,-561.5234375,-60.546875,0.0
1699110771.6760502,-57.6171875,-111.81640625,-409.66796875,-44.921875,0.0
1699110771.6799514,102.05078125,84.9609375,203.125,-17.578125,0.0
1699110771.6838524,-17.08984375,-54.19921875,-118.1640625,-36.1328125,0.0
1699110771.6877534,-146.97265625,-163.0859375,-537.109375,-64.94140625,0.0
1699110771.6916544,-87.890625,-144.04296875,-554.19921875,-51.26953125,0.0
1699110771.6955557,94.7265625,54.19921875,-92.7734375,-7.8125,0.0
1699110771.6994567,41.015625,140.625,245.1171875,-13.18359375,0.0
1699110771.7034287,-127.44140625,-112.79296875,-341.30859375,-43.45703125,0.0
1699110771.7073298,-104.4921875,-176.26953125,-670.8984375,-42.48046875,0.0
1699110771.711231,63.4765625,91.30859375,-57.6171875,-15.625,0.0
1699110771.715132,101.07421875,166.015625,333.49609375,-0.48828125,0.0
1699110771.719033,-83.0078125,-115.234375,-300.29296875,-23.92578125,0.0
1699110771.722934,-118.65234375,-246.09375,-681.15234375,-34.66796875,0.0
1699110771.7268353,1.953125,-18.5546875,-242.1875,-26.3671875,0.0
1699110771.7307363,114.2578125,221.19140625,381.8359375,-18.5546875,0.0
1699110771.7346373,-42.48046875,-71.77734375,-105.46875,-32.71484375,0.0
1699110771.7385383,-139.6484375,-324.70703125,-733.3984375,-36.62109375,0.0
1699110771.7424395,-62.01171875,-50.29296875,-418.45703125,-37.59765625,0.0
1699110771.7463405,104.4921875,218.75,312.5,-9.27734375,0.0
1699110771.7503145,0.0,-19.04296875,-5.859375,-21.484375,0.0
1699110771.7542155,-143.5546875,-187.5,-545.8984375,-62.5,0.0
1699110771.7581165,-106.93359375,-64.453125,-437.01171875,-54.19921875,0.0
1699110771.7620175,68.84765625,150.390625,169.43359375,-21.484375,0.0
1699110771.7659187,51.7578125,49.31640625,148.4375,-27.34375,0.0
1699110771.7698197,-121.58203125,-216.30859375,-491.2109375,-55.17578125,0.0
1699110771.7737207,-124.51171875,-193.359375,-628.41796875,-55.6640625,0.0
1699110771.777622,22.94921875,37.109375,-161.62109375,-31.25,0.0
1699110771.781523,87.40234375,60.546875,164.0625,-15.625,0.0
1699110771.785424,-94.7265625,-156.73828125,-353.02734375,-46.875,0.0
1699110771.789325,-148.92578125,-79.58984375,-534.66796875,-61.5234375,0.0
1699110771.7932262,-20.99609375,14.16015625,-282.71484375,-38.57421875,0.0
1699110771.7971828,108.3984375,89.84375,216.30859375,-12.6953125,0.0
1699110771.8010838,-45.41015625,-12.20703125,-20.5078125,-34.66796875,0.0
1699110771.8049848,-140.625,-112.79296875,-482.421875,-46.875,0.0
1699110771.808886,-59.08203125,-66.40625,-395.01953125,-31.25,0.0
1699110771.812787,110.3515625,62.5,117.67578125,-2.9296875,0.0
1699110771.816688,23.92578125,-32.71484375,-68.359375,-13.18359375,0.0
1699110771.8205893,-131.8359375,-115.234375,-468.26171875,-38.57421875,0.0
1699110771.8244903,-98.14453125,-87.890625,-497.0703125,-31.25,0.0
1699110771.8283913,83.984375,-48.33984375,-258.7890625,1.953125,0.0
1699110771.8322926,82.03125,90.33203125,144.53125,4.8828125,0.0
1699110771.8361936,-113.76953125,-34.66796875,-264.16015625,-25.87890625,0.0
1699110771.8400946,-124.0234375,-151.3671875,-625.48828125,-24.90234375,0.0
1699110771.8440537,24.90234375,44.43359375,-139.6484375,-1.953125,0.0
1699110771.8479548,111.328125,182.6171875,340.33203125,6.34765625,0.0
1699110771.851856,-72.265625,-109.375,-281.73828125,-25.87890625,0.0
1699110771.855757,-155.2734375,-227.05078125,-664.0625,-47.8515625,0.0
1699110771.859658,-52.734375,-26.85546875,-337.890625,-31.25,0.0
1699110771.8635592,89.84375,132.8125,202.63671875,-0.48828125,0.0
1699110771.8674603,-51.26953125,-42.96875,-111.328125,-23.92578125,0.0
1699110771.8713613,-169.921875,-229.98046875,-652.83203125,-50.29296875,0.0
1699110771.8752625,-109.375,-130.859375,-508.30078125,-42.96875,0.0
1699110771.8791635,64.453125,209.47265625,267.08984375,-23.92578125,0.0
1699110771.8830645,11.23046875,97.16796875,183.59375,-27.34375,0.0
1699110771.8869658,-148.92578125,-191.89453125,-536.1328125,-47.8515625,0.0
1699110771.890918,-125.9765625,-110.83984375,-560.05859375,-50.29296875,0.0
1699110771.894819,45.41015625,149.90234375,72.265625,-21.484375,0.0
1699110771.89872,69.3359375,127.9296875,297.36328125,-11.23046875,0.0
1699110771.9026213,-113.76953125,-160.15625,-399.4140625,-39.55078125,0.0
1699110771.9065223,-152.34375,-149.4140625,-598.6328125,-49.8046875,0.0
1699110771.9104233,-17.578125,20.5078125,-176.7578125,-34.1796875,0.0
1699110771.9143245,94.7265625,99.12109375,222.65625,-14.6484375,0.0
1699110771.9182255,-71.77734375,-193.359375,-397.4609375,-36.62109375,0.0
1699110771.9221265,-152.83203125,-162.59765625,-626.46484375,-58.10546875,0.0
1699110771.9260278,-67.87109375,68.84765625,-277.34375,-53.22265625,0.0
1699110771.9299288,92.28515625,129.39453125,187.98828125,-21.97265625,0.0
1699110771.9338298,-9.765625,-76.171875,-159.66796875,-23.92578125,0.0
1699110771.9377737,-134.765625,-128.41796875,-537.109375,-45.8984375,0.0
1699110771.9416747,-82.03125,-41.9921875,-400.87890625,-43.9453125,0.0
1699110771.945576,98.6328125,94.23828125,138.18359375,-14.6484375,0.0
1699110771.949477,63.4765625,61.03515625,217.28515625,-13.671875,0.0
1699110771.953378,-114.2578125,-136.23046875,-390.13671875,-37.59765625,0.0
1699110771.9572792,-104.98046875,-148.4375,-597.65625,-43.45703125,0.0
1699110771.9611802,58.59375,27.34375,-168.9453125,-20.99609375,0.0
1699110771.9650812,99.12109375,89.84375,200.1953125,-11.71875,0.0
1699110771.9689825,-83.49609375,-61.5234375,-311.03515625,-41.50390625,0.0
1699110771.9728835,-123.046875,-98.14453125,-560.546875,-41.50390625,0.0
1699110771.9767847,2.9296875,-11.71875,-287.59765625,-23.4375,0.0
1699110771.9806857,114.74609375,145.5078125,250.9765625,-5.37109375,0.0
1699110771.9846642,-48.828125,-9.765625,-34.66796875,-24.4140625,0.0
1699110771.9885652,-152.83203125,-174.31640625,-542.48046875,-43.9453125,0.0
1699110771.9924664,-74.70703125,-140.625,-500.9765625,-39.55078125,0.0
1699110771.9963675,91.30859375,126.46484375,211.42578125,-14.16015625,0.0
1699110772.0002687,-12.6953125,41.015625,110.3515625,-27.83203125,0.0
1699110772.0041697,-149.4140625,-244.140625,-573.2421875,-50.78125,0.0
1699110772.0080707,-105.95703125,-264.6484375,-699.70703125,-42.96875,0.0
1699110772.011972,60.546875,105.46875,9.27734375,-19.04296875,0.0
1699110772.015873,42.96875,176.7578125,300.78125,-16.11328125,0.0
1699110772.0197742,-136.71875,-142.08984375,-371.09375,-51.7578125,0.0
1699110772.0236752,-137.6953125,-217.7734375,-666.015625,-54.6875,0.0
1699110772.0275762,21.97265625,27.34375,-168.9453125,-32.2265625,0.0
1699110772.0315173,83.0078125,181.15234375,326.171875,-18.5546875,0.0
1699110772.0354183,-108.88671875,-93.26171875,-286.1328125,-40.0390625,0.0
1699110772.0393193,-175.29296875,-181.640625,-618.65234375,-59.5703125,0.0
1699110772.0432205,-61.03515625,0.0,-238.28125,-41.9921875,0.0
1699110772.0471215,83.0078125,137.6953125,279.78515625,-22.94921875,0.0
1699110772.0510228,-57.6171875,-87.40234375,-145.5078125,-49.8046875,0.0
1699110772.0549238,-161.1328125,-213.37890625,-634.765625,-62.5,0.0
1699110772.0588248,-82.03125,-49.31640625,-417.96875,-53.7109375,0.0
1699110772.062726,90.8203125,196.2890625,263.18359375,-31.25,0.0
1699110772.066627,22.4609375,-31.25,9.765625,-32.71484375,0.0
1699110772.070528,-124.51171875,-208.984375,-526.85546875,-50.78125,0.0
1699110772.0744293,-97.16796875,-13.671875,-447.75390625,-46.875,0.0
1699110772.0784035,77.63671875,141.11328125,72.75390625,-18.5546875,0.0
1699110772.0823047,87.890625,56.640625,147.4609375,-14.16015625,0.0
1699110772.0862057,-100.09765625,-109.375,-384.27734375,-40.52734375,0.0
1699110772.090107,-119.140625,-73.73046875,-506.8359375,-45.41015625,0.0
1699110772.094008,32.2265625,60.05859375,-142.08984375,-17.08984375,0.0
1699110772.097909,127.44140625,58.10546875,166.9921875,13.18359375,0.0
1699110772.1018102,-52.24609375,-99.12109375,-282.2265625,-16.11328125,0.0
1699110772.1057112,-131.34765625,-70.80078125,-496.58203125,-36.1328125,0.0
1699110772.1096125,-26.85546875,-20.01953125,-344.7265625,-18.06640625,0.0
1699110772.1135135,118.1640625,18.06640625,70.3125,11.71875,0.0
1699110772.1174145,-17.578125,-1.953125,-38.57421875,-14.6484375,0.0
1699110772.1213157,-136.71875,-80.078125,-469.7265625,-43.9453125,0.0
1699110772.1252825,-87.40234375,-77.63671875,-463.8671875,-32.2265625,0.0
1699110772.1291838,86.9140625,137.20703125,156.73828125,1.46484375,0.0
1699110772.1330848,27.34375,87.890625,231.4453125,-8.30078125,0.0
1699110772.136986,-140.625,-148.92578125,-393.06640625,-44.43359375,0.0
1699110772.140887,-128.90625,-186.03515625,-612.79296875,-44.921875,0.0
1699110772.144788,33.203125,20.99609375,-125.48828125,-14.16015625,0.0
1699110772.1486893,70.80078125,99.12109375,202.1484375,-8.7890625,0.0
1699110772.1525903,-119.140625,-126.46484375,-386.23046875,-44.43359375,0.0
1699110772.1564915,-156.25,-246.09375,-741.2109375,-48.828125,0.0
1699110772.1603925,-22.94921875,-30.2734375,-279.78515625,-28.3203125,0.0
1699110772.1642938,96.19140625,260.7421875,378.41796875,-6.34765625,0.0
1699110772.1681948,-62.5,-2.44140625,-64.94140625,-29.78515625,0.0
1699110772.1721535,-143.5546875,-215.8203125,-628.90625,-51.26953125,0.0
1699110772.1760545,-55.6640625,-54.19921875,-402.34375,-33.69140625,0.0
1699110772.1799555,100.09765625,188.96484375,291.015625,-3.90625,0.0
1699110772.1838567,-9.27734375,12.6953125,44.43359375,-16.6015625,0.0
1699110772.1877577,-136.23046875,-210.9375,-561.03515625,-42.48046875,0.0
1699110772.191659,-82.51953125,-142.578125,-571.2890625,-38.57421875,0.0
1699110772.19556,89.84375,128.41796875,56.640625,-6.34765625,0.0
1699110772.1994612,61.5234375,61.03515625,112.79296875,-6.34765625,0.0
1699110772.2033622,-102.5390625,-272.4609375,-599.12109375,-28.3203125,0.0
1699110772.2072635,-104.00390625,-112.3046875,-591.30859375,-29.78515625,0.0
1699110772.2111645,49.8046875,173.33984375,18.5546875,-10.25390625,0.0
1699110772.2150657,109.86328125,131.8359375,274.4140625,7.8125,0.0
1699110772.219018,-76.66015625,-90.33203125,-293.9453125,-15.13671875,0.0
1699110772.222919,-130.37109375,-100.5859375,-544.43359375,-31.25,0.0
1699110772.2268202,-10.7421875,46.38671875,-187.5,-16.11328125,0.0
1699110772.2307212,118.65234375,137.20703125,277.34375,6.34765625,0.0
1699110772.2346222,-40.52734375,-100.5859375,-216.796875,-13.18359375,0.0
1699110772.2385235,-151.3671875,-228.02734375,-651.3671875,-33.203125,0.0
1699110772.2424245,-75.1953125,-87.890625,-438.4765625,-33.69140625,0.0
1699110772.2463257,95.21484375,76.66015625,108.88671875,-3.90625,0.0
1699110772.2502267,0.48828125,-38.0859375,-179.19921875,-5.37109375,0.0
1699110772.254128,-155.2734375,-100.09765625,-503.90625,-41.015625,0.0
1699110772.258029,-118.65234375,-104.98046875,-533.203125,-52.24609375,0.0
1699110772.2619302,50.78125,73.73046875,-42.48046875,-23.4375,0.0
1699110772.265884,48.828125,135.25390625,283.203125,-13.671875,0.0
1699110772.2697852,-124.0234375,-79.58984375,-302.734375,-44.43359375,0.0
1699110772.2736862,-144.04296875,-143.06640625,-567.87109375,-58.59375,0.0
1699110772.2775874,2.44140625,-0.9765625,-192.3828125,-38.57421875,0.0
1699110772.2814884,84.9609375,129.8828125,278.3203125,-18.5546875,0.0
1699110772.2853897,-91.796875,-106.93359375,-258.30078125,-47.36328125,0.0
1699110772.2892907,-157.71484375,-229.98046875,-641.6015625,-61.5234375,0.0
1699110772.293192,-56.15234375,-160.15625,-465.8203125,-36.62109375,0.0
1699110772.297093,85.44921875,150.87890625,234.375,-20.5078125,0.0
1699110772.3009942,-56.640625,80.56640625,58.10546875,-45.8984375,0.0
1699110772.3048952,-166.9921875,-166.015625,-540.0390625,-57.12890625,0.0
1699110772.3087964,-97.16796875,-104.4921875,-440.91796875,-46.875,0.0
1699110772.3127532,78.125,131.8359375,224.12109375,-26.3671875,0.0
1699110772.3166544,12.6953125,63.96484375,174.8046875,-29.296875,0.0
1699110772.3205554,-145.5078125,-149.90234375,-475.5859375,-46.875,0.0
1699110772.3244567,-112.3046875,-105.46875,-523.92578125,-40.52734375,0.0
1699110772.3283577,59.08203125,101.5625,105.95703125,-7.8125,0.0
1699110772.332259,75.1953125,70.80078125,236.328125,-5.37109375,0.0
1699110772.33616,-104.00390625,-192.3828125,-430.6640625,-35.64453125,0.0
1699110772.3400612,-125.9765625,-184.5703125,-630.37109375,-37.109375,0.0
1699110772.3439622,15.13671875,124.51171875,-83.49609375,-19.53125,0.0
1699110772.3478634,122.0703125,194.82421875,345.21484375,0.48828125,0.0
1699110772.3517644,-44.921875,-118.65234375,-294.921875,-26.3671875,0.0
1699110772.3556657,-124.0234375,-158.203125,-592.28515625,-51.26953125,0.0
1699110772.3596478,-22.94921875,14.6484375,-286.1328125,-29.78515625,0.0
1699110772.3635488,130.37109375,156.25,257.32421875,7.8125,0.0
1699110772.36745,0.48828125,-85.44921875,-157.71484375,0.9765625,0.0
1699110772.371351,-124.51171875,-216.796875,-626.953125,-28.3203125,0.0
1699110772.3752522,-80.078125,-52.24609375,-428.22265625,-35.15625,0.0
1699110772.3791533,88.8671875,85.44921875,42.96875,-2.9296875,0.0
1699110772.3830545,49.31640625,-88.8671875,-140.625,0.9765625,0.0
1699110772.3869555,-121.58203125,-150.390625,-507.8125,-37.109375,0.0
1699110772.3908567,-118.1640625,-21.484375,-452.63671875,-50.78125,0.0
1699110772.3947577,54.19921875,90.33203125,-4.8828125,-21.484375,0.0
1699110772.398659,102.5390625,107.91015625,299.8046875,-12.6953125,0.0
1699110772.40256,-90.8203125,-77.63671875,-267.578125,-40.0390625,0.0
1699110772.4065022,-138.18359375,-143.06640625,-558.10546875,-46.875,0.0
1699110772.4104035,-9.765625,-19.04296875,-257.8125,-37.109375,0.0
1699110772.4143045,105.46875,132.32421875,295.8984375,-16.6015625,0.0
1699110772.4182057,-64.453125,-35.64453125,-56.640625,-36.62109375,0.0
1699110772.4221067,-152.34375,-187.01171875,-568.359375,-56.15234375,0.0
1699110772.426008,-38.57421875,-97.16796875,-360.83984375,-36.1328125,0.0
1699110772.429909,112.3046875,119.140625,217.28515625,-16.11328125,0.0
1699110772.4338102,-9.27734375,-10.7421875,-53.7109375,-40.52734375,0.0
1699110772.4377112,-148.92578125,-132.32421875,-463.37890625,-53.22265625,0.0
1699110772.4416125,-100.5859375,-148.4375,-562.5,-42.96875,0.0
1699110772.4455135,79.1015625,13.671875,-123.53515625,-15.13671875,0.0
1699110772.4494147,65.4296875,159.1796875,270.01953125,-19.53125,0.0
1699110772.4533803,-104.98046875,-70.3125,-301.26953125,-42.96875,0.0
1699110772.4572816,-108.88671875,-163.57421875,-635.7421875,-35.15625,0.0
1699110772.4611826,54.6875,84.47265625,-66.89453125,-6.34765625,0.0
1699110772.4650838,124.0234375,179.19921875,345.703125,8.30078125,0.0
1699110772.4689848,-57.6171875,-104.4921875,-259.27734375,-17.578125,0.0
1699110772.472886,-109.375,-268.06640625,-701.171875,-22.4609375,0.0
