time,TP9,AF7,AF8,TP10,Right AUX
1699109046.362304,-158.69140625,-42.96875,-38.57421875,-17.578125,0.0
1699109046.3662074,-136.71875,22.4609375,-22.94921875,-30.2734375,0.0
1699109046.370111,77.1484375,58.10546875,-4.8828125,-10.7421875,0.0
1699109046.3740146,138.18359375,19.53125,0.0,0.9765625,0.0
1699109046.3779182,-120.60546875,-32.71484375,-32.71484375,-25.390625,0.0
1699109046.3818216,-168.45703125,-30.76171875,-56.15234375,-31.25,0.0
1699109046.3857253,18.06640625,21.97265625,-27.34375,-24.4140625,0.0
1699109046.389629,176.7578125,-4.39453125,-16.6015625,-5.37109375,0.0
1699109046.3935325,-54.19921875,-48.33984375,-36.1328125,-26.3671875,0.0
1699109046.397436,-177.734375,17.08984375,-26.3671875,-39.55078125,0.0
1699109046.4013395,-29.296875,-1.46484375,-23.4375,-4.39453125,0.0
1699109046.4052432,192.87109375,52.24609375,3.90625,-0.48828125,0.0
1699109046.4092753,21.97265625,23.4375,-18.06640625,-35.15625,0.0
1699109046.4131787,-183.10546875,-27.34375,-47.36328125,-58.59375,0.0
1699109046.4170823,-105.95703125,-28.3203125,-44.921875,-54.19921875,0.0
1699109046.420986,121.58203125,9.765625,-11.71875,-23.92578125,0.0
1699109046.4248896,74.21875,-3.41796875,-28.3203125,-29.296875,0.0
1699109046.428793,-158.69140625,-60.05859375,-66.40625,-63.4765625,0.0
1699109046.4326966,-142.578125,-63.96484375,-51.7578125,-53.22265625,0.0
1699109046.4366002,54.19921875,-41.50390625,-27.83203125,-12.20703125,0.0
1699109046.4405038,120.1171875,52.24609375,0.9765625,-14.16015625,0.0
1699109046.4444072,-125.0,26.85546875,-19.04296875,-36.1328125,0.0
1699109046.4483109,-166.50390625,-61.5234375,-41.9921875,-22.4609375,0.0
1699109046.4522145,-2.44140625,-20.5078125,-24.90234375,-18.06640625,0.0
1699109046.4562347,161.62109375,29.296875,-10.7421875,-10.25390625,0.0
1699109046.460138,-41.50390625,-32.2265625,-26.3671875,-24.4140625,0.0
1699109046.4640417,-185.546875,-61.5234375,-33.69140625,-33.69140625,0.0
1699109046.4679453,-73.73046875,-10.25390625,-15.625,-28.80859375,0.0
1699109046.471849,132.8125,58.10546875,10.25390625,-11.23046875,0.0
1699109046.4757526,0.9765625,-44.43359375,-26.3671875,-8.30078125,0.0
1699109046.479656,-161.1328125,-94.7265625,-40.0390625,-20.5078125,0.0
1699109046.4835596,-118.65234375,-14.6484375,-19.53125,-23.4375,0.0
1699109046.4874632,104.98046875,69.3359375,8.30078125,-5.859375,0.0
1699109046.4913669,103.515625,35.15625,3.90625,0.48828125,0.0
1699109046.4952705,-145.5078125,-121.58203125,-47.8515625,-19.04296875,0.0
1699109046.4991739,-151.85546875,-94.7265625,-43.45703125,-31.25,0.0
1699109046.5031917,41.50390625,72.75390625,-0.9765625,-22.4609375,0.0
1699109046.5070953,147.94921875,24.90234375,-5.37109375,-7.8125,0.0
1699109046.5109987,-88.8671875,-66.40625,-36.1328125,-26.3671875,0.0
1699109046.5149024,-162.59765625,-46.875,-38.0859375,-39.55078125,0.0
1699109046.518806,-18.5546875,-20.01953125,-15.13671875,-18.5546875,0.0
1699109046.5227096,176.7578125,-5.859375,6.34765625,8.30078125,0.0
1699109046.5266132,-7.8125,-68.84765625,-22.94921875,-3.41796875,0.0
1699109046.5305166,-173.33984375,-25.390625,-24.90234375,-27.34375,0.0
1699109046.5344203,-89.35546875,33.69140625,-11.23046875,-36.1328125,0.0
1699109046.5383239,149.90234375,23.4375,-8.7890625,2.9296875,0.0
1699109046.5422275,68.84765625,-27.83203125,-23.92578125,1.46484375,0.0
1699109046.546131,-166.015625,-27.83203125,-27.83203125,-34.1796875,0.0
1699109046.5501592,-138.671875,-23.92578125,-33.203125,-36.62109375,0.0
1699109046.5540628,98.14453125,-9.765625,-20.5078125,-6.34765625,0.0
1699109046.5579665,118.1640625,4.8828125,-6.34765625,2.9296875,0.0
1699109046.56187,-133.7890625,-14.16015625,-28.3203125,-23.92578125,0.0
1699109046.5657737,-161.62109375,-24.4140625,-47.36328125,-33.203125,0.0
1699109046.569677,23.4375,-68.359375,-56.15234375,-12.6953125,0.0
1699109046.5735807,160.64453125,-49.31640625,-39.55078125,3.41796875,0.0
1699109046.5774844,-88.37890625,7.8125,-23.4375,-36.62109375,0.0
1699109046.581388,-181.15234375,0.0,-22.94921875,-42.96875,0.0
1699109046.5852916,-27.34375,5.859375,-12.6953125,-13.671875,0.0
1699109046.5891953,173.33984375,68.359375,15.13671875,-2.9296875,0.0
1699109046.5930986,-11.23046875,44.43359375,-7.8125,-19.53125,0.0
1699109046.5971246,-173.828125,-23.92578125,-32.2265625,-18.06640625,0.0
1699109046.601028,-75.68359375,-10.7421875,-18.5546875,-11.23046875,0.0
1699109046.6049316,148.4375,71.77734375,11.71875,-0.9765625,0.0
1699109046.6088352,84.47265625,24.4140625,-1.953125,-1.46484375,0.0
1699109046.6127388,-142.578125,-54.6875,-30.2734375,-12.6953125,0.0
1699109046.6166425,-134.27734375,-49.31640625,-44.921875,-22.4609375,0.0
1699109046.620546,72.265625,40.52734375,-23.4375,-24.4140625,0.0
1699109046.6244495,112.3046875,86.42578125,-28.80859375,-24.90234375,0.0
1699109046.628353,-133.30078125,-45.8984375,-84.47265625,-30.76171875,0.0
1699109046.6322567,-177.24609375,-62.5,-57.6171875,-38.57421875,0.0
1699109046.6361604,3.41796875,59.5703125,4.39453125,-30.2734375,0.0
1699109046.640064,171.875,91.30859375,14.6484375,-4.8828125,0.0
1699109046.6441002,-51.26953125,-33.203125,-34.66796875,-15.625,0.0
1699109046.6480038,-168.45703125,-80.078125,-46.875,-35.15625,0.0
1699109046.6519074,-51.26953125,62.98828125,-4.39453125,-46.38671875,0.0
1699109046.6558108,159.1796875,92.7734375,4.8828125,-15.625,0.0
1699109046.6597145,7.8125,-15.13671875,-43.45703125,-16.11328125,0.0
1699109046.663618,-171.875,-61.03515625,-62.5,-31.73828125,0.0
1699109046.6675217,-114.74609375,1.953125,-27.34375,-34.66796875,0.0
1699109046.6714253,117.1875,83.49609375,12.20703125,-18.06640625,0.0
1699109046.675329,97.65625,-38.57421875,-21.97265625,0.48828125,0.0
1699109046.6792324,-142.578125,-83.49609375,-46.38671875,-21.97265625,0.0
1699109046.683136,-144.04296875,24.90234375,-20.01953125,-52.734375,0.0
1699109046.6870396,64.453125,3.90625,-16.6015625,-33.203125,0.0
1699109046.6910636,146.97265625,-0.48828125,-6.8359375,-10.25390625,0.0
1699109046.6949673,-103.02734375,-16.6015625,-26.3671875,-27.34375,0.0
1699109046.698871,-171.875,-38.57421875,-36.1328125,-41.50390625,0.0
1699109046.7027745,-1.46484375,-25.87890625,-10.7421875,-21.97265625,0.0
1699109046.7066782,176.26953125,-12.20703125,-1.953125,-0.48828125,0.0
1699109046.7105818,-42.96875,-68.359375,-40.0390625,-30.2734375,0.0
1699109046.7144852,-182.6171875,-64.453125,-40.52734375,-48.33984375,0.0
1699109046.7183888,-76.66015625,-26.85546875,-24.4140625,-32.2265625,0.0
1699109046.7222924,150.87890625,11.23046875,-9.27734375,-5.859375,0.0
1699109046.726196,25.87890625,17.08984375,-11.23046875,-13.671875,0.0
1699109046.7300997,-179.19921875,-3.41796875,-33.69140625,-37.109375,0.0
1699109046.7340033,-113.76953125,-43.9453125,-46.875,-16.6015625,0.0
1699109046.7380254,117.1875,-27.83203125,-24.4140625,13.671875,0.0
1699109046.741929,74.21875,50.29296875,-9.27734375,-20.01953125,0.0
1699109046.7458327,-165.52734375,-31.25,-51.26953125,-39.0625,0.0
1699109046.7497363,-141.6015625,-62.01171875,-50.78125,-25.87890625,0.0
1699109046.7536397,39.0625,20.01953125,-12.20703125,-13.18359375,0.0
1699109046.7575433,123.046875,-3.90625,-21.97265625,-6.34765625,0.0
1699109046.761447,-113.76953125,-72.75390625,-47.8515625,-32.71484375,0.0
1699109046.7653506,-177.24609375,-131.34765625,-47.36328125,-28.80859375,0.0
1699109046.7692542,-37.59765625,-66.89453125,-17.578125,-21.484375,0.0
1699109046.7731578,144.53125,82.51953125,19.53125,-21.97265625,0.0
1699109046.7770615,-27.83203125,-18.5546875,-20.99609375,-25.390625,0.0
1699109046.7809649,-172.36328125,-71.77734375,-43.45703125,-35.15625,0.0
1699109046.784984,-79.58984375,-16.11328125,-14.16015625,-32.71484375,0.0
1699109046.7888877,145.5078125,38.0859375,16.11328125,-2.9296875,0.0
1699109046.7927914,40.52734375,-38.57421875,-11.23046875,-12.6953125,0.0
1699109046.796695,-178.22265625,-106.4453125,-49.31640625,-34.1796875,0.0
1699109046.8005984,-122.0703125,-49.31640625,-50.78125,-21.97265625,0.0
1699109046.804502,108.88671875,18.06640625,-15.625,-3.41796875,0.0
1699109046.8084056,121.58203125,-43.9453125,-16.6015625,6.34765625,0.0
1699109046.8123093,-137.20703125,-126.46484375,-45.8984375,-38.57421875,0.0
1699109046.816213,-179.6875,-13.671875,-11.71875,-65.91796875,0.0
1699109046.8201165,18.5546875,76.171875,21.484375,-33.203125,0.0
1699109046.8240201,152.83203125,17.08984375,-4.39453125,-11.71875,0.0
1699109046.8279238,-88.8671875,-50.78125,-39.0625,-36.1328125,0.0
1699109046.8319468,-178.22265625,-8.30078125,-29.296875,-54.6875,0.0
1699109046.8358505,-22.94921875,22.4609375,-23.4375,-38.57421875,0.0
1699109046.839754,181.15234375,10.7421875,-16.11328125,-5.859375,0.0
1699109046.8436577,-4.39453125,-28.80859375,-28.80859375,-18.5546875,0.0
1699109046.8475614,-182.6171875,-33.203125,-34.1796875,-46.38671875,0.0
1699109046.851465,-102.05078125,-38.0859375,-22.94921875,-37.109375,0.0
1699109046.8553686,144.53125,-44.43359375,-18.06640625,-2.44140625,0.0
1699109046.859272,66.40625,-62.98828125,-32.71484375,-3.90625,0.0
1699109046.8631756,-168.9453125,-5.37109375,-20.5078125,-41.9921875,0.0
1699109046.8670793,-143.5546875,6.8359375,-24.90234375,-50.29296875,0.0
1699109046.870983,78.125,27.34375,0.9765625,-14.16015625,0.0
1699109046.8748865,110.83984375,41.015625,20.5078125,6.34765625,0.0
1699109046.8789082,-152.83203125,-10.25390625,-22.4609375,-36.1328125,0.0
1699109046.8828118,-180.6640625,-30.76171875,-36.62109375,-50.29296875,0.0
1699109046.8867154,0.48828125,5.859375,-19.04296875,-32.2265625,0.0
1699109046.890619,144.04296875,47.8515625,-10.25390625,-20.5078125,0.0
1699109046.8945227,-74.70703125,-42.96875,-56.640625,-37.109375,0.0
1699109046.8984263,-187.98828125,-78.61328125,-65.4296875,-45.8984375,0.0
1699109046.9023297,-60.546875,-38.0859375,-29.296875,-33.69140625,0.0
1699109046.9062333,149.4140625,67.87109375,-5.859375,-24.4140625,0.0
1699109046.910137,-15.13671875,30.76171875,-39.0625,-36.62109375,0.0
1699109046.9140406,-202.1484375,-70.3125,-52.734375,-44.43359375,0.0
1699109046.9179442,-104.4921875,-71.77734375,-38.0859375,-20.5078125,0.0
1699109046.9218478,131.34765625,38.57421875,-4.39453125,-9.765625,0.0
1699109046.925876,68.84765625,47.8515625,-12.6953125,-24.90234375,0.0
1699109046.9297795,-161.62109375,-58.59375,-53.22265625,-39.0625,0.0
1699109046.9336832,-145.01953125,-51.26953125,-44.921875,-40.52734375,0.0
1699109046.9375868,61.5234375,46.875,-7.8125,-25.87890625,0.0
1699109046.9414904,122.55859375,34.66796875,-14.6484375,-11.23046875,0.0
1699109046.945394,-111.328125,-136.23046875,-82.51953125,-20.01953125,0.0
1699109046.9492974,-154.78515625,-113.76953125,-62.98828125,-30.76171875,0.0
1699109046.953201,-7.32421875,48.33984375,7.32421875,-27.83203125,0.0
1699109046.9571047,158.69140625,36.1328125,11.71875,-7.8125,0.0
1699109046.9610083,-55.17578125,-55.6640625,-23.92578125,-25.390625,0.0
1699109046.964912,-183.59375,-38.0859375,-34.1796875,-37.109375,0.0
1699109046.9688156,-60.05859375,16.11328125,-12.6953125,-24.90234375,0.0
1699109046.9728413,156.73828125,20.99609375,5.37109375,-9.765625,0.0
1699109046.976745,28.3203125,-51.7578125,-19.04296875,-19.04296875,0.0
1699109046.9806485,-166.015625,-52.24609375,-21.484375,-39.55078125,0.0
1699109046.9845521,-118.65234375,-31.73828125,-19.04296875,-37.109375,0.0
1699109046.9884558,108.3984375,-29.78515625,-16.6015625,-12.6953125,0.0
1699109046.9923594,98.14453125,-52.734375,-14.6484375,6.34765625,0.0
1699109046.996263,-141.11328125,-75.68359375,-33.69140625,-15.13671875,0.0
1699109047.0001667,-155.2734375,-33.203125,-26.3671875,-43.45703125,0.0
1699109047.0040703,45.41015625,-29.78515625,-12.20703125,-22.4609375,0.0
1699109047.0079737,144.53125,-66.89453125,-22.4609375,4.8828125,0.0
1699109047.0118773,-115.234375,-29.78515625,-16.11328125,-21.97265625,0.0
1699109047.015781,-179.19921875,-9.765625,-0.9765625,-34.1796875,0.0
1699109047.0198045,-21.484375,-34.1796875,-6.8359375,-23.92578125,0.0
1699109047.023708,159.66796875,7.8125,14.6484375,-12.20703125,0.0
1699109047.0276115,-39.0625,-12.20703125,3.90625,-22.4609375,0.0
1699109047.0315151,-206.0546875,-63.96484375,-24.90234375,-39.55078125,0.0
1699109047.0354187,-102.05078125,-71.77734375,-17.08984375,-36.62109375,0.0
1699109047.0393224,139.16015625,-15.625,4.39453125,-17.578125,0.0
1699109047.043226,45.8984375,13.671875,-6.34765625,-15.13671875,0.0
1699109047.0471296,-146.97265625,8.7890625,-6.8359375,-36.62109375,0.0
1699109047.0510333,-115.234375,-91.30859375,-48.828125,-37.109375,0.0
1699109047.054937,83.49609375,-31.25,-43.9453125,-12.6953125,0.0
1699109047.0588405,76.171875,77.63671875,0.48828125,-23.4375,0.0
1699109047.0627441,-150.390625,-59.5703125,-32.71484375,-53.22265625,0.0
1699109047.0667684,-164.55078125,-67.3828125,-30.2734375,-59.5703125,0.0
1699109047.070672,13.18359375,16.6015625,-7.8125,-53.22265625,0.0
1699109047.0745757,135.25390625,41.015625,-3.41796875,-37.109375,0.0
1699109047.0784793,-91.796875,-50.78125,-36.1328125,-45.41015625,0.0
1699109047.0823827,-166.50390625,-97.65625,-47.8515625,-47.36328125,0.0
1699109047.0862863,-17.578125,-34.66796875,-27.83203125,-38.57421875,0.0
1699109047.09019,171.875,15.13671875,-10.7421875,-34.1796875,0.0
1699109047.0940936,-7.32421875,-42.48046875,-34.66796875,-36.1328125,0.0
1699109047.0979972,-165.0390625,-94.7265625,-53.7109375,-37.109375,0.0
1699109047.1019008,-99.12109375,1.953125,-16.6015625,-53.7109375,0.0
1699109047.1058044,123.53515625,70.3125,11.71875,-35.64453125,0.0
1699109047.109708,47.36328125,-32.71484375,-27.34375,-24.90234375,0.0
1699109047.1137297,-176.26953125,-74.70703125,-46.38671875,-49.8046875,0.0
1699109047.1176333,-135.25390625,-11.23046875,-29.296875,-55.17578125,0.0
1699109047.121537,89.84375,36.1328125,-12.6953125,-30.2734375,0.0
1699109047.1254406,118.65234375,-14.16015625,-20.5078125,-18.06640625,0.0
1699109047.1293442,-137.20703125,-79.58984375,-43.9453125,-40.52734375,0.0
1699109047.1332479,-165.52734375,-71.77734375,-44.921875,-43.9453125,0.0
1699109047.1371515,19.53125,-10.7421875,-18.06640625,-26.3671875,0.0
1699109047.141055,169.921875,-40.52734375,-23.4375,-8.7890625,0.0
1699109047.1449587,-60.546875,-80.078125,-49.8046875,-25.87890625,0.0
1699109047.1488624,-172.8515625,0.9765625,-24.4140625,-42.48046875,0.0
1699109047.152766,-34.1796875,-3.41796875,-7.8125,-24.4140625,0.0
1699109047.1566696,166.015625,43.9453125,13.671875,-2.9296875,0.0
1699109047.1606889,-1.953125,7.8125,-16.11328125,-24.4140625,0.0
1699109047.1645925,-177.24609375,-36.1328125,-41.015625,-47.36328125,0.0
1699109047.1684961,-108.88671875,-27.34375,-31.25,-41.015625,0.0
1699109047.1723998,131.34765625,15.13671875,-3.41796875,-17.08984375,0.0
1699109047.1763034,72.265625,-12.20703125,-22.4609375,-25.390625,0.0
1699109047.180207,-163.57421875,-59.5703125,-48.828125,-43.9453125,0.0
1699109047.1841106,-127.9296875,-36.62109375,-45.8984375,-33.69140625,0.0
1699109047.1880143,69.82421875,4.8828125,-27.34375,-20.5078125,0.0
1699109047.191918,118.65234375,76.171875,3.41796875,-27.83203125,0.0
1699109047.1958215,-126.46484375,35.15625,-15.625,-42.48046875,0.0
1699109047.1997252,-161.1328125,-33.203125,-33.69140625,-41.50390625,0.0
1699109047.2036288,14.16015625,-13.18359375,-15.13671875,-31.73828125,0.0
1699109047.2076583,169.921875,30.76171875,1.953125,-11.23046875,0.0
1699109047.211562,-50.78125,-12.6953125,-24.4140625,-28.3203125,0.0
1699109047.2154655,-175.78125,-71.77734375,-40.0390625,-36.1328125,0.0
1699109047.2193692,-47.8515625,-27.83203125,-13.18359375,-22.4609375,0.0
1699109047.2232728,167.48046875,41.9921875,5.37109375,-9.765625,0.0
1699109047.2271764,30.76171875,-30.76171875,-34.1796875,-21.484375,0.0
1699109047.23108,-161.1328125,-112.79296875,-76.66015625,-27.83203125,0.0
1699109047.2349837,-105.46875,-39.55078125,-45.8984375,-18.06640625,0.0
1699109047.2388873,112.3046875,128.90625,24.90234375,-8.30078125,0.0
1699109047.242791,89.84375,69.3359375,-8.7890625,-20.01953125,0.0
1699109047.2466946,-151.3671875,-15.13671875,-46.38671875,-49.31640625,0.0
1699109047.2505982,-159.1796875,20.5078125,-28.80859375,-42.96875,0.0
1699109047.254616,54.19921875,74.70703125,-11.23046875,-25.87890625,0.0
1699109047.2585196,132.8125,36.1328125,-19.04296875,-19.04296875,0.0
1699109047.2624233,-112.3046875,-79.1015625,-58.10546875,-36.62109375,0.0
1699109047.266327,-160.15625,-46.38671875,-48.33984375,-42.96875,0.0
1699109047.2702305,-1.953125,24.90234375,-20.99609375,-33.203125,0.0
1699109047.2741342,170.8984375,40.0390625,-9.27734375,-16.11328125,0.0
1699109047.2780378,-47.36328125,-11.23046875,-23.4375,-30.2734375,0.0
1699109047.2819414,-212.40234375,10.25390625,-35.64453125,-54.6875,0.0
1699109047.285845,-136.71875,70.80078125,-24.90234375,-52.734375,0.0
1699109047.2897487,86.42578125,52.24609375,-16.11328125,-24.90234375,0.0
1699109047.2936523,-27.34375,-35.15625,-40.0390625,-22.94921875,0.0
1699109047.297556,-248.53515625,14.6484375,-32.2265625,-61.5234375,0.0
1699109047.301584,-210.44921875,50.78125,-20.01953125,-66.40625,0.0
1699109047.3054876,2.9296875,47.8515625,-17.08984375,-31.73828125,0.0
1699109047.3093913,1.46484375,25.87890625,-28.3203125,-33.203125,0.0
1699109047.313295,-239.74609375,0.48828125,-41.9921875,-56.640625,0.0
1699109047.3171985,-261.71875,-10.25390625,-45.8984375,-52.24609375,0.0
1699109047.3211021,-55.17578125,-50.78125,-41.9921875,-26.85546875,0.0
1699109047.3250058,80.56640625,-32.2265625,-31.73828125,-13.671875,0.0
1699109047.3289094,-168.9453125,11.71875,-32.2265625,-44.43359375,0.0
1699109047.332813,-270.5078125,14.6484375,-32.2265625,-61.5234375,0.0
1699109047.3367167,-105.46875,-27.83203125,-32.2265625,-35.15625,0.0
1699109047.3406203,99.609375,44.43359375,-2.9296875,-15.13671875,0.0
1699109047.344524,-95.21484375,44.921875,-22.94921875,-43.45703125,0.0
1699109047.3485496,-242.1875,-43.9453125,-48.33984375,-47.36328125,0.0
1699109047.3524532,-143.06640625,-23.4375,-25.87890625,-36.62109375,0.0
1699109047.3563569,83.0078125,71.2890625,5.37109375,-22.4609375,0.0
1699109047.3602605,0.48828125,41.50390625,-14.16015625,-21.484375,0.0
1699109047.364164,-214.84375,-46.875,-44.921875,-41.015625,0.0
1699109047.3680677,-180.6640625,-41.9921875,-47.8515625,-43.9453125,0.0
1699109047.3719714,31.73828125,48.828125,-13.671875,-23.92578125,0.0
1699109047.375875,56.15234375,71.77734375,-0.9765625,-19.53125,0.0
1699109047.3797786,-185.546875,-48.33984375,-44.921875,-37.59765625,0.0
1699109047.3836823,-204.1015625,-87.40234375,-51.7578125,-39.0625,0.0
1699109047.3875859,-16.11328125,63.4765625,1.953125,-27.83203125,0.0
1699109047.3914895,107.91015625,107.421875,14.6484375,-19.04296875,0.0
1699109047.3955128,-119.140625,-29.78515625,-30.76171875,-33.69140625,0.0
1699109047.3994164,-201.171875,-41.50390625,-41.015625,-50.29296875,0.0
1699109047.40332,-66.40625,36.62109375,-15.625,-46.38671875,0.0
1699109047.4072237,142.578125,69.3359375,12.20703125,-17.578125,0.0
1699109047.4111273,-6.8359375,-16.11328125,-24.4140625,-27.83203125,0.0
1699109047.415031,-182.12890625,-79.1015625,-51.7578125,-51.26953125,0.0
1699109047.4189346,-117.1875,-2.44140625,-18.06640625,-54.19921875,0.0
1699109047.4228382,102.5390625,89.35546875,15.13671875,-37.109375,0.0
1699109047.4267418,48.828125,-59.5703125,-43.45703125,-22.94921875,0.0
1699109047.4306455,-184.5703125,-109.375,-77.1484375,-55.17578125,0.0
1699109047.434549,-180.6640625,22.94921875,-39.0625,-74.21875,0.0
1699109047.4384527,30.76171875,16.11328125,-30.76171875,-36.62109375,0.0
1699109047.442477,82.03125,17.08984375,-19.53125,-25.390625,0.0
1699109047.4463806,-158.203125,-13.18359375,-27.34375,-62.5,0.0
1699109047.4502842,-187.98828125,-22.4609375,-33.69140625,-62.98828125,0.0
1699109047.4541879,-0.9765625,-0.9765625,-28.80859375,-27.83203125,0.0
1699109047.4580915,152.83203125,3.90625,-19.04296875,-13.671875,0.0
1699109047.4619951,-66.89453125,-44.43359375,-35.64453125,-29.78515625,0.0
1699109047.4658988,-181.15234375,-29.296875,-36.1328125,-47.36328125,0.0
1699109047.4698024,-67.3828125,-2.44140625,-21.97265625,-37.109375,0.0
1699109047.473706,153.3203125,-24.90234375,-14.16015625,-7.32421875,0.0
1699109047.4776096,2.9296875,13.18359375,-10.7421875,-29.78515625,0.0
1699109047.4815133,-189.453125,-8.7890625,-22.4609375,-51.7578125,0.0
1699109047.485417,-116.2109375,-62.01171875,-26.85546875,-46.38671875,0.0
1699109047.4894419,118.65234375,19.04296875,5.859375,-32.2265625,0.0
1699109047.4933455,77.1484375,4.8828125,-3.90625,-33.203125,0.0
1699109047.4972491,-164.0625,-59.5703125,-27.34375,-55.17578125,0.0
1699109047.5011528,-152.83203125,-53.7109375,-27.83203125,-67.3828125,0.0
1699109047.5050564,46.38671875,-10.25390625,-20.5078125,-48.828125,0.0
1699109047.50896,115.72265625,-16.11328125,-25.87890625,-30.76171875,0.0
1699109047.5128636,-134.765625,-69.3359375,-36.62109375,-53.22265625,0.0
1699109047.5167673,-175.78125,-116.2109375,-38.0859375,-54.6875,0.0
1699109047.520671,-4.39453125,-72.265625,-12.20703125,-36.1328125,0.0
1699109047.5245745,156.73828125,90.33203125,33.69140625,-34.1796875,0.0
1699109047.5284781,-49.31640625,7.8125,-9.765625,-48.828125,0.0
1699109047.5323818,-179.6875,-80.078125,-49.31640625,-48.33984375,0.0
1699109047.5364013,-74.21875,1.46484375,-21.97265625,-52.24609375,0.0
1699109047.540305,142.08984375,76.66015625,14.6484375,-48.828125,0.0
1699109047.5442085,32.2265625,-4.39453125,-20.99609375,-45.41015625,0.0
1699109047.5481122,-175.78125,-72.75390625,-47.8515625,-55.6640625,0.0
1699109047.5520158,-122.0703125,-50.78125,-27.83203125,-64.94140625,0.0
1699109047.5559194,114.74609375,11.23046875,-13.18359375,-45.8984375,0.0
1699109047.559823,95.21484375,-0.48828125,-34.1796875,-43.9453125,0.0
1699109047.5637267,-163.0859375,-40.0390625,-56.15234375,-73.73046875,0.0
1699109047.5676303,-167.96875,21.97265625,-34.66796875,-75.68359375,0.0
1699109047.571534,33.203125,81.54296875,-7.32421875,-53.7109375,0.0
1699109047.5754375,136.23046875,38.57421875,-15.13671875,-30.2734375,0.0
1699109047.5793412,-112.3046875,-27.83203125,-45.41015625,-51.7578125,0.0
1699109047.583358,-180.6640625,15.625,-32.71484375,-67.87109375,0.0
1699109047.5872617,-22.4609375,45.41015625,-17.08984375,-46.38671875,0.0
1699109047.5911653,163.57421875,40.0390625,-11.23046875,-15.13671875,0.0
1699109047.595069,-31.25,-8.30078125,-27.34375,-28.80859375,0.0
1699109047.5989726,-180.17578125,-21.484375,-33.203125,-57.6171875,0.0
1699109047.6028762,-88.8671875,-10.7421875,-21.484375,-41.50390625,0.0
1699109047.6067798,131.8359375,-27.34375,-20.99609375,-2.44140625,0.0
1699109047.6106834,45.8984375,-42.96875,-37.59765625,-11.23046875,0.0
1699109047.614587,-185.546875,41.9921875,-23.92578125,-47.36328125,0.0
1699109047.618491,-149.90234375,25.87890625,-19.04296875,-44.43359375,0.0
1699109047.6223946,75.1953125,46.38671875,3.90625,-18.06640625,0.0
1699109047.6262982,92.28515625,66.40625,3.41796875,-20.01953125,0.0
1699109047.630316,-146.97265625,21.484375,-20.5078125,-44.921875,0.0
1699109047.6342196,-168.9453125,1.46484375,-24.90234375,-46.875,0.0
1699109047.6381233,21.484375,44.43359375,-7.32421875,-24.90234375,0.0
1699109047.642027,155.2734375,85.9375,8.7890625,-13.671875,0.0
1699109047.6459305,-85.44921875,-11.71875,-35.64453125,-48.33984375,0.0
1699109047.6498342,-171.875,-47.36328125,-55.17578125,-45.8984375,0.0
1699109047.6537378,-30.76171875,-14.6484375,-29.78515625,-23.92578125,0.0
1699109047.6576414,168.45703125,88.8671875,20.99609375,-25.87890625,0.0
1699109047.661545,-2.9296875,62.98828125,7.8125,-41.50390625,0.0
1699109047.6654487,-174.31640625,-49.8046875,-34.1796875,-48.33984375,0.0
1699109047.6693523,-105.95703125,-34.1796875,-32.71484375,-52.734375,0.0
1699109047.673256,112.3046875,82.03125,10.7421875,-42.48046875,0.0
1699109047.6772842,60.546875,45.41015625,0.0,-32.2265625,0.0
1699109047.6811879,-157.2265625,-61.03515625,-43.45703125,-40.52734375,0.0
1699109047.6850915,-145.01953125,-38.0859375,-48.828125,-56.640625,0.0
1699109047.6889951,51.7578125,71.77734375,-15.625,-51.26953125,0.0
1699109047.6928988,101.07421875,57.6171875,-7.8125,-41.50390625,0.0
1699109047.6968024,-124.0234375,-90.33203125,-51.26953125,-50.78125,0.0
1699109047.700706,-159.66796875,-84.9609375,-46.38671875,-47.36328125,0.0
1699109047.7046096,1.46484375,67.3828125,7.32421875,-41.50390625,0.0
1699109047.7085133,164.0625,67.3828125,8.7890625,-30.2734375,0.0
1699109047.712417,-56.15234375,-69.82421875,-46.38671875,-43.45703125,0.0
1699109047.7163205,-177.734375,-38.0859375,-51.7578125,-52.734375,0.0
1699109047.7202241,-62.5,44.921875,-17.578125,-52.24609375,0.0
1699109047.7242498,161.1328125,41.015625,3.41796875,-32.71484375,0.0
1699109047.7281535,17.08984375,-5.859375,-13.671875,-35.64453125,0.0
1699109047.732057,-178.22265625,-19.04296875,-23.92578125,-53.7109375,0.0
1699109047.7359607,-110.83984375,-4.39453125,-19.53125,-43.9453125,0.0
1699109047.7398646,109.375,8.30078125,-10.25390625,-15.13671875,0.0
1699109047.7437682,68.84765625,-25.87890625,-26.3671875,-15.13671875,0.0
1699109047.7476718,-156.73828125,-33.203125,-41.9921875,-40.52734375,0.0
1699109047.7515755,-139.16015625,22.4609375,-25.87890625,-45.8984375,0.0
1699109047.755479,69.3359375,30.76171875,-10.25390625,-23.4375,0.0
1699109047.7593827,144.53125,-21.97265625,-17.08984375,-0.9765625,0.0
1699109047.7632864,-108.88671875,8.30078125,-20.99609375,-41.50390625,0.0
1699109047.76719,-166.50390625,36.62109375,-24.4140625,-59.08203125,0.0
1699109047.7712133,-1.46484375,10.7421875,-28.3203125,-35.64453125,0.0
1699109047.775117,172.36328125,55.6640625,-6.8359375,-11.71875,0.0
1699109047.7790205,-27.34375,29.78515625,-17.08984375,-24.4140625,0.0
1699109047.7829242,-156.73828125,-45.41015625,-50.78125,-39.0625,0.0
1699109047.786828,-48.828125,-20.99609375,-40.52734375,-25.390625,0.0
1699109047.7907317,165.0390625,42.96875,-4.39453125,-5.859375,0.0
1699109047.7946353,38.57421875,35.64453125,-19.04296875,-30.2734375,0.0
1699109047.798539,-161.1328125,10.25390625,-36.62109375,-42.96875,0.0
1699109047.8024426,-99.609375,-82.03125,-50.78125,-16.11328125,0.0
1699109047.8063462,106.93359375,-15.625,-18.5546875,-7.32421875,0.0
1699109047.8102498,75.1953125,85.44921875,3.41796875,-25.87890625,0.0
1699109047.8141534,-151.3671875,-27.83203125,-39.55078125,-39.0625,0.0
1699109047.8181746,-148.4375,-56.640625,-48.828125,-37.109375,0.0
1699109047.8220782,35.64453125,27.34375,-22.94921875,-22.4609375,0.0
1699109047.8259819,129.39453125,47.8515625,-10.25390625,-21.484375,0.0
1699109047.8298855,-120.60546875,-45.41015625,-41.50390625,-46.875,0.0
1699109047.833789,-185.546875,-91.796875,-52.734375,-46.38671875,0.0
1699109047.8376927,-13.671875,-12.6953125,-30.76171875,-28.3203125,0.0
1699109047.8415964,167.48046875,49.8046875,-12.20703125,-9.27734375,0.0
1699109047.8455,-30.2734375,-32.71484375,-37.59765625,-27.83203125,0.0
1699109047.8494036,-178.7109375,-99.12109375,-68.84765625,-45.41015625,0.0
1699109047.8533075,-87.40234375,-0.9765625,-35.15625,-53.22265625,0.0
1699109047.857211,145.01953125,95.703125,15.625,-29.78515625,0.0
1699109047.8611147,47.36328125,-0.9765625,-18.5546875,-15.13671875,0.0
1699109047.8651364,-183.10546875,-64.453125,-43.45703125,-44.921875,0.0
1699109047.86904,-139.16015625,-21.97265625,-21.97265625,-50.29296875,0.0
1699109047.8729436,100.5859375,28.3203125,0.0,-17.578125,0.0
1699109047.8768473,116.2109375,-14.16015625,-22.94921875,-11.71875,0.0
1699109047.8807511,-135.7421875,-65.91796875,-49.8046875,-43.9453125,0.0
1699109047.8846548,-152.34375,-61.5234375,-43.45703125,-49.31640625,0.0
1699109047.8885584,32.71484375,-10.7421875,-16.6015625,-31.25,0.0
1699109047.892462,147.94921875,-47.8515625,-20.99609375,-13.18359375,0.0
1699109047.8963656,-80.078125,-131.8359375,-56.640625,-31.25,0.0
1699109047.9002693,-185.05859375,-25.390625,-33.69140625,-52.24609375,0.0
1699109047.904173,-36.62109375,23.4375,-16.11328125,-41.9921875,0.0
1699109047.9080765,183.59375,37.109375,-6.34765625,-23.92578125,0.0
1699109047.9120963,2.44140625,11.71875,-26.85546875,-41.50390625,0.0
1699109047.916,-173.33984375,-15.625,-40.52734375,-58.10546875,0.0
1699109047.9199035,-93.75,-13.18359375,-32.2265625,-49.31640625,0.0
1699109047.9238074,130.37109375,17.578125,-17.578125,-26.3671875,0.0
1699109047.927711,54.6875,-8.7890625,-31.25,-24.4140625,0.0
1699109047.9316146,-170.41015625,-72.75390625,-57.6171875,-47.8515625,0.0
1699109047.9355183,-147.94921875,-66.89453125,-45.41015625,-35.64453125,0.0
1699109047.939422,66.89453125,-25.87890625,-24.4140625,-22.94921875,0.0
1699109047.9433255,114.74609375,40.52734375,-13.671875,-44.921875,0.0
1699109047.9472291,-125.0,11.71875,-25.390625,-52.24609375,0.0
1699109047.951133,-160.64453125,-62.98828125,-43.9453125,-50.78125,0.0
1699109047.9550366,15.13671875,-33.203125,-33.203125,-39.0625,0.0
1699109047.9590535,162.59765625,50.29296875,-4.39453125,-11.23046875,0.0
1699109047.9629574,-60.05859375,4.8828125,-23.92578125,-39.0625,0.0
1699109047.966861,-165.0390625,-68.84765625,-49.8046875,-41.015625,0.0
1699109047.9707646,-42.48046875,-21.484375,-31.25,-33.203125,0.0
1699109047.9746683,157.2265625,52.734375,-0.9765625,-22.94921875,0.0
1699109047.978572,3.41796875,-39.0625,-35.64453125,-21.97265625,0.0
1699109047.9824755,-174.31640625,-155.2734375,-65.91796875,-30.76171875,0.0
1699109047.9863791,-108.88671875,-103.02734375,-40.52734375,-29.296875,0.0
1699109047.990283,113.76953125,65.91796875,2.9296875,-24.90234375,0.0
1699109047.9941866,79.1015625,-0.9765625,-22.4609375,-21.97265625,0.0
1699109047.9980903,-152.83203125,-86.42578125,-46.875,-44.43359375,0.0
1699109048.001994,-143.06640625,-38.57421875,-31.73828125,-50.78125,0.0
1699109048.006021,62.5,18.5546875,-6.8359375,-25.390625,0.0
1699109048.009925,128.41796875,-13.18359375,-25.390625,-21.484375,0.0
1699109048.0138285,-116.2109375,-81.54296875,-61.5234375,-42.48046875,0.0
1699109048.0177321,-163.57421875,-37.109375,-40.0390625,-40.52734375,0.0
1699109048.0216358,5.37109375,5.37109375,-22.4609375,-19.04296875,0.0
1699109048.0255394,172.36328125,5.859375,-18.5546875,-2.44140625,0.0
1699109048.029443,-40.52734375,-53.7109375,-40.0390625,-24.4140625,0.0
1699109048.0333467,-179.19921875,-14.6484375,-32.2265625,-46.875,0.0
1699109048.0372505,-77.63671875,35.15625,-13.18359375,-45.41015625,0.0
1699109048.0411541,142.578125,19.53125,-9.765625,-17.08984375,0.0
1699109048.0450578,18.5546875,-33.203125,-31.73828125,-22.4609375,0.0
1699109048.0489614,-184.5703125,-27.83203125,-44.43359375,-47.8515625,0.0
1699109048.0529864,-125.48828125,-7.32421875,-36.1328125,-39.55078125,0.0
1699109048.05689,95.21484375,4.39453125,-29.296875,-10.7421875,0.0
1699109048.0607939,69.82421875,-11.23046875,-35.64453125,-13.671875,0.0
1699109048.0646975,-162.59765625,-30.2734375,-37.59765625,-42.48046875,0.0
1699109048.0686011,-160.15625,-42.96875,-34.66796875,-54.6875,0.0
1699109048.0725048,31.25,-25.390625,-12.20703125,-27.83203125,0.0
1699109048.0764084,133.7890625,-17.578125,-9.27734375,-8.7890625,0.0
1699109048.080312,-111.328125,-36.62109375,-27.83203125,-30.76171875,0.0
1699109048.0842159,-188.4765625,-12.20703125,-22.94921875,-42.48046875,0.0
1699109048.0881195,-12.20703125,-79.58984375,-35.15625,-19.53125,0.0
1699109048.0920231,176.7578125,-37.59765625,-15.625,0.9765625,0.0
1699109048.0959268,-36.1328125,45.8984375,-2.9296875,-28.3203125,0.0
1699109048.0999525,-174.31640625,-20.99609375,-21.97265625,-36.1328125,0.0
1699109048.103856,-65.4296875,-37.109375,-22.4609375,-26.85546875,0.0
1699109048.1077597,160.15625,46.875,-2.44140625,0.0,0.0
1699109048.1116636,59.08203125,20.99609375,-20.99609375,-11.71875,0.0
1699109048.1155672,-163.57421875,-74.70703125,-54.6875,-34.66796875,0.0
1699109048.1194708,-119.62890625,-60.05859375,-53.22265625,-32.71484375,0.0
1699109048.1233745,105.95703125,28.80859375,-23.4375,-14.16015625,0.0
1699109048.127278,121.09375,27.34375,-19.04296875,-10.25390625,0.0
1699109048.1311817,-130.859375,-50.78125,-46.875,-40.52734375,0.0
1699109048.1350856,-135.7421875,-100.09765625,-49.31640625,-33.203125,0.0
1699109048.1389892,59.08203125,36.62109375,-2.9296875,-24.4140625,0.0
1699109048.1428928,165.52734375,109.375,10.7421875,-24.4140625,0.0
1699109048.1469162,-67.87109375,-28.3203125,-41.9921875,-47.8515625,0.0
1699109048.1508198,-148.92578125,-37.59765625,-41.015625,-47.8515625,0.0
1699109048.1547234,-11.23046875,34.66796875,-3.41796875,-22.94921875,0.0
1699109048.1586273,176.26953125,54.19921875,4.8828125,-12.6953125,0.0
1699109048.162531,-7.8125,-53.22265625,-32.71484375,-26.85546875,0.0
1699109048.1664345,-157.2265625,-97.65625,-50.29296875,-36.62109375,0.0
1699109048.1703382,-65.91796875,-25.87890625,-29.296875,-31.73828125,0.0
1699109048.1742418,148.4375,62.01171875,4.39453125,-19.04296875,0.0
1699109048.1781456,74.70703125,-55.17578125,-34.1796875,-12.20703125,0.0
1699109048.1820493,-150.87890625,-108.3984375,-64.453125,-23.4375,0.0
1699109048.185953,-139.6484375,-5.859375,-30.2734375,-48.33984375,0.0
1699109048.1898565,68.359375,19.53125,-11.71875,-41.9921875,0.0
1699109048.1938777,109.375,15.13671875,-13.18359375,-24.4140625,0.0
1699109048.1977813,-144.04296875,-21.484375,-33.203125,-42.48046875,0.0
1699109048.201685,-185.05859375,-24.4140625,-38.57421875,-49.31640625,0.0
1699109048.2055886,0.0,-0.48828125,-25.87890625,-37.109375,0.0
1699109048.2094924,145.01953125,1.46484375,-33.203125,-12.20703125,0.0
1699109048.213396,-74.21875,-50.78125,-61.5234375,-20.01953125,0.0
1699109048.2172997,-180.17578125,-30.2734375,-45.41015625,-49.31640625,0.0
1699109048.2212033,-54.6875,-15.625,-23.4375,-43.45703125,0.0
1699109048.225107,160.15625,-25.87890625,-10.25390625,-13.671875,0.0
1699109048.2290106,-0.48828125,15.625,-9.765625,-38.0859375,0.0
1699109048.2329144,-187.01171875,12.20703125,-21.484375,-62.01171875,0.0
1699109048.236818,-115.234375,-22.4609375,-31.73828125,-57.12890625,0.0
1699109048.2408428,123.046875,18.5546875,-18.06640625,-40.0390625,0.0
1699109048.2447464,72.265625,11.23046875,-24.4140625,-36.1328125,0.0
1699109048.24865,-168.9453125,-13.18359375,-46.875,-55.6640625,0.0
1699109048.2525537,-135.25390625,-19.53125,-36.1328125,-47.8515625,0.0
1699109048.2564576,69.3359375,18.06640625,-9.27734375,-23.4375,0.0
1699109048.2603612,127.44140625,2.44140625,-23.4375,-27.34375,0.0
1699109048.2642648,-125.0,-64.453125,-53.7109375,-63.96484375,0.0
1699109048.2681684,-167.96875,-100.09765625,-63.96484375,-44.921875,0.0
1699109048.272072,0.9765625,-32.71484375,-35.15625,-19.53125,0.0
1699109048.275976,155.2734375,96.19140625,-1.953125,-27.83203125,0.0
1699109048.2798796,-60.546875,-10.25390625,-45.8984375,-34.66796875,0.0
1699109048.2837832,-196.2890625,-60.05859375,-52.24609375,-46.38671875,0.0
1699109048.2878025,-73.73046875,12.20703125,-20.99609375,-38.0859375,0.0
1699109048.291706,145.01953125,63.96484375,-1.953125,-20.5078125,0.0
1699109048.29561,16.11328125,-18.06640625,-34.66796875,-29.296875,0.0
1699109048.2995136,-178.22265625,-85.9375,-59.5703125,-47.36328125,0.0
1699109048.3034172,-134.765625,-56.15234375,-46.875,-45.8984375,0.0
1699109048.3073208,97.16796875,3.41796875,-18.06640625,-18.5546875,0.0
1699109048.3112247,95.21484375,-26.3671875,-27.83203125,-14.16015625,0.0
1699109048.3151283,-148.4375,-111.328125,-56.15234375,-27.83203125,0.0
1699109048.319032,-158.69140625,-21.484375,-30.2734375,-37.109375,0.0
1699109048.3229356,31.73828125,80.56640625,2.44140625,-20.01953125,0.0
1699109048.3268392,121.09375,11.23046875,-16.11328125,1.953125,0.0
1699109048.330743,-125.0,-67.87109375,-44.43359375,-26.3671875,0.0
1699109048.33476,-183.10546875,-36.62109375,-43.9453125,-46.38671875,0.0
1699109048.3386636,-24.4140625,15.13671875,-33.69140625,-33.69140625,0.0
1699109048.3425674,157.71484375,18.5546875,-20.99609375,-6.34765625,0.0
1699109048.346471,-36.1328125,-28.80859375,-37.59765625,-17.578125,0.0
1699109048.3503747,-173.828125,-21.484375,-38.0859375,-33.69140625,0.0
1699109048.3542783,-46.875,-20.5078125,-29.78515625,-7.8125,0.0
1699109048.3581822,187.98828125,-40.0390625,-25.87890625,29.296875,0.0
1699109048.3620858,71.77734375,-39.55078125,-36.62109375,6.34765625,0.0
1699109048.3659894,-150.390625,33.69140625,-34.66796875,-37.59765625,0.0
1699109048.369893,-94.7265625,22.94921875,-28.80859375,-12.20703125,0.0
1699109048.3737967,126.953125,36.62109375,5.859375,9.765625,0.0
1699109048.3777006,120.1171875,43.9453125,-4.8828125,-17.578125,0.0
1699109048.381715,-127.9296875,0.48828125,-35.15625,-40.52734375,0.0
1699109048.3856187,-135.7421875,-23.92578125,-27.83203125,-29.78515625,0.0
1699109048.3895226,67.87109375,4.39453125,-5.859375,-15.625,0.0
1699109048.3934262,179.19921875,37.109375,3.41796875,-7.32421875,0.0
1699109048.3973298,-70.80078125,-44.43359375,-34.66796875,-29.296875,0.0
1699109048.4012334,-158.69140625,-82.03125,-46.38671875,-33.69140625,0.0
1699109048.4051373,-12.20703125,-36.62109375,-24.90234375,-17.08984375,0.0
1699109048.409041,171.875,73.73046875,0.48828125,-8.7890625,0.0
1699109048.4129446,-5.37109375,32.2265625,-21.484375,-30.2734375,0.0
1699109048.4168482,-167.48046875,-71.2890625,-41.50390625,-37.109375,0.0
1699109048.4207518,-103.02734375,-40.52734375,-23.92578125,-30.2734375,0.0
1699109048.4246557,114.2578125,68.359375,13.671875,-23.92578125,0.0
1699109048.4286807,47.36328125,25.390625,-1.953125,-27.34375,0.0
1699109048.4325843,-174.8046875,-80.078125,-41.9921875,-44.43359375,0.0
1699109048.436488,-147.4609375,-57.6171875,-37.59765625,-43.9453125,0.0
1699109048.4403915,62.01171875,37.109375,-6.34765625,-30.76171875,0.0
1699109048.4442954,91.30859375,20.99609375,-16.6015625,-31.25,0.0
1699109048.448199,-148.92578125,-131.34765625,-69.3359375,-36.1328125,0.0
1699109048.4521027,-191.89453125,-106.4453125,-59.5703125,-37.109375,0.0
1699109048.4560063,-29.78515625,59.08203125,-5.859375,-45.41015625,0.0
1699109048.4599102,124.51171875,41.015625,-8.30078125,-28.3203125,0.0
1699109048.4638138,-91.796875,-57.12890625,-44.43359375,-40.0390625,0.0
1699109048.4677174,-194.3359375,-30.76171875,-35.15625,-53.22265625,0.0
1699109048.471621,-64.453125,3.90625,-20.01953125,-37.109375,0.0
1699109048.4756467,153.3203125,-4.39453125,-10.25390625,-9.27734375,0.0
1699109048.4795504,8.30078125,-15.625,-20.01953125,-16.6015625,0.0
1699109048.483454,-172.8515625,-9.27734375,-29.78515625,-40.0390625,0.0
1699109048.4873579,-101.07421875,0.48828125,-30.2734375,-39.55078125,0.0
1699109048.4912615,136.23046875,17.08984375,-25.390625,-10.25390625,0.0
1699109048.495165,96.19140625,-20.5078125,-38.0859375,0.48828125,0.0
1699109048.4990687,-141.11328125,-40.52734375,-43.45703125,-25.390625,0.0
1699109048.5029726,-130.859375,27.34375,-19.04296875,-35.64453125,0.0
1699109048.5068762,85.44921875,40.0390625,-16.11328125,-7.32421875,0.0
1699109048.5107799,158.69140625,-26.85546875,-24.90234375,16.6015625,0.0
1699109048.5146835,-108.3984375,-3.41796875,-29.296875,-20.5078125,0.0
1699109048.5185874,-156.25,30.76171875,-29.78515625,-36.62109375,0.0
1699109048.5226104,26.3671875,5.37109375,-19.04296875,-6.34765625,0.0
1699109048.526514,171.875,23.92578125,5.37109375,15.13671875,0.0
1699109048.530418,-50.29296875,-19.04296875,-15.13671875,-7.8125,0.0
1699109048.5343215,-167.96875,-28.80859375,-27.83203125,-32.2265625,0.0
1699109048.5382252,-54.6875,4.8828125,-11.71875,-19.53125,0.0
1699109048.542129,166.50390625,19.53125,-3.41796875,2.44140625,0.0
1699109048.5460327,26.85546875,12.6953125,-11.71875,-9.765625,0.0
1699109048.5499363,-178.22265625,20.01953125,-15.13671875,-36.1328125,0.0
1699109048.55384,-113.76953125,-49.8046875,-34.1796875,-24.90234375,0.0
1699109048.5577438,106.4453125,-0.9765625,-13.671875,-0.48828125,0.0
1699109048.5616474,80.56640625,100.09765625,7.32421875,-30.2734375,0.0
1699109048.565551,-146.484375,-0.9765625,-32.2265625,-41.015625,0.0
1699109048.569572,-144.53125,-21.484375,-27.34375,-24.90234375,0.0
1699109048.5734756,40.52734375,58.59375,4.8828125,-10.7421875,0.0
1699109048.5773795,130.859375,63.96484375,8.30078125,-7.32421875,0.0
1699109048.581283,-102.5390625,-36.1328125,-32.2265625,-19.04296875,0.0
1699109048.5851867,-176.26953125,-86.9140625,-57.12890625,-30.76171875,0.0
1699109048.5890906,-28.3203125,-22.94921875,-19.53125,-33.203125,0.0
1699109048.5929942,154.296875,38.0859375,6.34765625,-8.30078125,0.0
1699109048.5968978,-42.96875,-42.48046875,-38.0859375,-30.2734375,0.0
1699109048.6008015,-191.40625,-90.8203125,-49.8046875,-42.96875,0.0
1699109048.6047053,-95.21484375,15.13671875,-12.6953125,-42.96875,0.0
1699109048.608609,131.8359375,94.23828125,5.37109375,-21.97265625,0.0
1699109048.6125126,31.73828125,0.0,-29.296875,-13.671875,0.0
1699109048.6165311,-167.96875,-45.8984375,-36.62109375,-35.15625,0.0
1699109048.620435,-132.8125,8.30078125,-14.6484375,-41.50390625,0.0
1699109048.6243386,86.9140625,43.45703125,4.39453125,-18.06640625,0.0
1699109048.6282423,108.3984375,2.9296875,-13.671875,-6.8359375,0.0
1699109048.632146,-130.859375,-61.5234375,-45.41015625,-24.4140625,0.0
1699109048.6360497,-140.13671875,-67.3828125,-43.9453125,-29.296875,0.0
1699109048.6399534,52.734375,1.953125,-16.11328125,-8.30078125,0.0
1699109048.643857,165.52734375,-34.1796875,-11.71875,12.6953125,0.0
1699109048.6477609,-83.0078125,-92.7734375,-41.50390625,-12.20703125,0.0
1699109048.6516645,-171.875,29.78515625,-17.578125,-28.80859375,0.0
1699109048.6555681,-10.7421875,40.52734375,-7.8125,-13.671875,0.0
1699109048.6594718,185.05859375,35.64453125,-8.7890625,-1.46484375,0.0
1699109048.6634912,1.953125,-4.39453125,-34.1796875,-12.20703125,0.0
1699109048.6673949,-154.296875,-20.01953125,-42.48046875,-21.484375,0.0
1699109048.6712985,-62.98828125,-15.625,-31.25,-24.90234375,0.0
1699109048.6752024,152.83203125,21.97265625,-6.34765625,0.0,0.0
1699109048.679106,67.3828125,-1.953125,-19.04296875,8.7890625,0.0
1699109048.6830096,-150.390625,-48.33984375,-45.8984375,-23.4375,0.0
1699109048.6869135,-126.953125,-42.48046875,-35.64453125,-35.15625,0.0
1699109048.690817,82.51953125,3.90625,-11.71875,-2.9296875,0.0
1699109048.6947207,111.328125,51.7578125,0.0,-0.48828125,0.0
1699109048.6986244,-134.27734375,-4.39453125,-24.90234375,-37.109375,0.0
1699109048.7025282,-168.45703125,-79.1015625,-47.36328125,-39.0625,0.0
1699109048.7064319,7.8125,-24.90234375,-26.3671875,-14.16015625,0.0
1699109048.7104492,144.04296875,77.1484375,2.9296875,-9.765625,0.0
1699109048.714353,-86.9140625,19.53125,-27.34375,-38.57421875,0.0
1699109048.7182567,-186.03515625,-65.91796875,-56.15234375,-42.96875,0.0
1699109048.7221603,-58.59375,-45.41015625,-40.52734375,-25.390625,0.0
1699109048.726064,138.18359375,64.94140625,-8.30078125,-17.578125,0.0
1699109048.7299678,-18.06640625,-22.94921875,-46.38671875,-31.25,0.0
1699109048.7338715,-191.40625,-124.51171875,-65.91796875,-33.203125,0.0
1699109048.737775,-115.234375,-77.1484375,-48.33984375,-19.53125,0.0
1699109048.741679,114.2578125,67.87109375,-10.25390625,-13.671875,0.0
1699109048.7455826,75.68359375,31.73828125,-20.99609375,-25.87890625,0.0
1699109048.7494862,-154.78515625,-54.19921875,-46.38671875,-45.41015625,0.0
1699109048.75339,-144.53125,-21.484375,-36.62109375,-42.96875,0.0
1699109048.7574048,64.94140625,53.22265625,-9.27734375,-27.34375,0.0
1699109048.7613084,110.83984375,2.9296875,-29.78515625,-10.25390625,0.0
1699109048.765212,-132.8125,-63.96484375,-57.6171875,-36.1328125,0.0
1699109048.7691157,-165.0390625,-38.0859375,-39.0625,-55.17578125,0.0
1699109048.7730196,0.0,-22.4609375,-23.92578125,-43.45703125,0.0
1699109048.7769232,162.59765625,-26.3671875,-13.18359375,-12.6953125,0.0
1699109048.7808268,-60.05859375,-96.19140625,-41.9921875,-23.92578125,0.0
1699109048.7847307,-193.359375,-45.8984375,-37.59765625,-51.26953125,0.0
1699109048.7886343,-68.84765625,30.2734375,-9.27734375,-42.48046875,0.0
1699109048.792538,152.34375,20.5078125,-9.765625,-9.27734375,0.0
1699109048.7964418,16.11328125,-42.48046875,-35.64453125,-19.53125,0.0
1699109048.8003454,-173.33984375,-31.25,-29.296875,-42.48046875,0.0
1699109048.8043702,-121.58203125,-7.32421875,-22.94921875,-41.015625,0.0
1699109048.8082738,107.421875,4.8828125,-28.3203125,-26.3671875,0.0
1699109048.8121774,90.33203125,-20.01953125,-29.296875,-19.04296875,0.0
1699109048.8160813,-154.78515625,-46.38671875,-26.85546875,-47.8515625,0.0
1699109048.819985,-150.390625,-51.7578125,-29.296875,-51.26953125,0.0
1699109048.8238885,56.640625,-58.10546875,-20.5078125,-13.671875,0.0
1699109048.8277924,138.671875,-26.85546875,-4.8828125,-10.25390625,0.0
1699109048.831696,-115.234375,-19.04296875,-12.6953125,-37.59765625,0.0
1699109048.8355997,-170.41015625,-46.38671875,-22.4609375,-35.15625,0.0
1699109048.8395035,-8.7890625,-54.6875,-27.34375,-19.04296875,0.0
1699109048.8434072,163.57421875,21.484375,3.90625,4.8828125,0.0
1699109048.8473108,-47.36328125,9.765625,-12.6953125,-20.01953125,0.0
1699109048.8513334,-184.5703125,-58.10546875,-56.640625,-39.0625,0.0
1699109048.855237,-68.359375,-37.109375,-37.109375,-27.34375,0.0
1699109048.8591409,149.90234375,46.875,0.0,-12.20703125,0.0
1699109048.8630445,43.9453125,24.90234375,-15.13671875,-9.765625,0.0
1699109048.8669481,-147.4609375,-49.31640625,-41.9921875,-14.6484375,0.0
1699109048.870852,-102.05078125,-52.734375,-34.66796875,-19.04296875,0.0
1699109048.8747556,109.86328125,24.4140625,-8.30078125,-0.48828125,0.0
1699109048.8786592,116.69921875,49.31640625,-24.90234375,6.34765625,0.0
1699109048.882563,-118.1640625,-32.71484375,-49.8046875,-20.01953125,0.0
1699109048.8864667,-130.37109375,-86.42578125,-47.8515625,-19.53125,0.0
1699109048.8903704,42.48046875,44.43359375,-11.71875,-14.16015625,0.0
1699109048.8942742,149.90234375,85.44921875,1.953125,-3.41796875,0.0
1699109048.8982975,-78.61328125,-38.57421875,-33.203125,-6.8359375,0.0
1699109048.9022012,-161.62109375,-41.015625,-44.43359375,-25.87890625,0.0
1699109048.9061048,-25.390625,43.9453125,-16.6015625,-14.6484375,0.0
1699109048.9100087,183.59375,76.171875,-3.90625,13.18359375,0.0
1699109048.9139123,18.06640625,-20.01953125,-36.1328125,10.7421875,0.0
1699109048.9178162,-145.5078125,-86.9140625,-55.6640625,-7.32421875,0.0
1699109048.9217198,-70.80078125,-10.25390625,-39.55078125,-17.08984375,0.0
1699109048.9256234,154.78515625,93.26171875,7.8125,9.765625,0.0
1699109048.9295273,90.8203125,-54.19921875,-21.97265625,14.6484375,0.0
1699109048.933431,-143.06640625,-135.7421875,-56.15234375,-16.11328125,0.0
1699109048.9373345,-131.8359375,18.06640625,-16.11328125,-35.64453125,0.0
1699109048.9412384,80.56640625,62.5,7.32421875,-16.11328125,0.0
1699109048.9452593,113.28125,21.484375,-11.23046875,-5.859375,0.0
1699109048.9491632,-134.765625,-19.04296875,-37.59765625,-27.83203125,0.0
1699109048.9530668,-171.875,-19.53125,-38.0859375,-44.43359375,0.0
1699109048.9569705,18.06640625,19.04296875,-17.08984375,-29.78515625,0.0
1699109048.9608743,162.109375,2.44140625,-23.4375,0.0,0.0
1699109048.964778,-62.98828125,-53.7109375,-45.41015625,-20.5078125,0.0
1699109048.9686816,-152.83203125,-44.921875,-29.78515625,-35.15625,0.0
1699109048.9725854,-33.203125,-28.3203125,-23.92578125,-25.390625,0.0
1699109048.976489,163.0859375,-14.6484375,-16.11328125,0.48828125,0.0
1699109048.980393,3.90625,-5.859375,-16.6015625,-16.6015625,0.0
1699109048.9842966,-171.38671875,-14.16015625,-26.3671875,-37.109375,0.0
1699109048.9882002,-92.28515625,-35.64453125,-33.69140625,-26.85546875,0.0
1699109048.9922187,145.5078125,-7.32421875,-12.20703125,-0.9765625,0.0
1699109048.9961226,88.37890625,12.6953125,-0.48828125,-4.8828125,0.0
1699109049.0000262,-145.99609375,-11.23046875,-21.484375,-30.2734375,0.0
1699109049.0039299,-124.0234375,-36.1328125,-38.57421875,-35.15625,0.0
1699109049.0078337,78.61328125,3.90625,-26.3671875,-22.94921875,0.0
1699109049.0117373,134.27734375,3.41796875,-26.3671875,-1.953125,0.0
1699109049.015641,-119.62890625,-38.0859375,-48.33984375,-29.78515625,0.0
1699109049.0195448,-146.97265625,-85.44921875,-58.59375,-34.66796875,0.0
1699109049.0234485,13.671875,-30.2734375,-31.73828125,-20.5078125,0.0
1699109049.0273523,153.80859375,117.1875,8.7890625,-19.53125,0.0
1699109049.031256,-34.66796875,30.76171875,-35.64453125,-18.06640625,0.0
1699109049.0351596,-159.1796875,-22.94921875,-59.08203125,-22.4609375,0.0
1699109049.039176,-53.22265625,30.2734375,-26.3671875,-20.5078125,0.0
1699109049.0430799,161.1328125,88.37890625,1.46484375,-6.8359375,0.0
1699109049.0469835,18.5546875,13.671875,-40.0390625,-26.3671875,0.0
1699109049.0508873,-184.08203125,-54.19921875,-65.4296875,-51.7578125,0.0
1699109049.054791,-121.09375,-6.34765625,-31.25,-39.55078125,0.0
1699109049.0586946,107.421875,42.48046875,-4.8828125,-14.16015625,0.0
1699109049.0625985,84.9609375,6.8359375,-23.4375,-17.08984375,0.0
1699109049.066502,-153.80859375,-76.66015625,-51.7578125,-29.296875,0.0
1699109049.070406,-165.0390625,15.13671875,-29.296875,-31.25,0.0
1699109049.0743096,31.73828125,101.5625,-2.9296875,-23.92578125,0.0
1699109049.0782132,125.9765625,34.1796875,-14.6484375,-14.6484375,0.0
1699109049.082117,-113.28125,-38.57421875,-58.10546875,-40.52734375,0.0
1699109049.086134,-181.15234375,-12.20703125,-58.10546875,-52.734375,0.0
1699109049.0900378,-21.484375,42.48046875,-23.4375,-35.15625,0.0
1699109049.0939415,166.50390625,43.45703125,-7.8125,-4.39453125,0.0
1699109049.0978453,-35.64453125,-10.25390625,-24.4140625,-15.625,0.0
1699109049.101749,-164.55078125,-18.5546875,-31.73828125,-35.64453125,0.0
1699109049.1056526,-61.5234375,-11.23046875,-23.4375,-20.5078125,0.0
1699109049.1095564,150.87890625,-20.5078125,-17.08984375,20.99609375,0.0
1699109049.11346,46.875,-39.55078125,-29.78515625,9.765625,0.0
1699109049.117364,-185.05859375,19.04296875,-22.4609375,-50.29296875,0.0
1699109049.1212676,-147.4609375,0.48828125,-27.83203125,-40.0390625,0.0
1699109049.1251712,35.15625,9.765625,-15.13671875,-12.20703125,0.0
1699109049.129075,64.453125,33.203125,-9.27734375,-17.578125,0.0
1699109049.1331027,-115.234375,-5.37109375,-29.78515625,-34.1796875,0.0
1699109049.1370065,-133.7890625,-36.62109375,-32.71484375,-36.62109375,0.0
1699109049.1409101,0.0,-9.27734375,-26.3671875,-25.390625,0.0
1699109049.1448138,100.5859375,37.59765625,-20.99609375,-11.23046875,0.0
1699109049.1487176,-64.453125,-20.99609375,-36.1328125,-23.92578125,0.0
1699109049.1526213,-143.5546875,-67.3828125,-48.33984375,-32.71484375,0.0
1699109049.1565251,-47.36328125,-57.6171875,-40.0390625,-22.94921875,0.0
1699109049.1604288,98.6328125,40.0390625,-2.9296875,-20.01953125,0.0
1699109049.1643326,-27.34375,0.9765625,-14.6484375,-28.3203125,0.0
1699109049.1682363,-150.390625,-80.078125,-35.15625,-36.62109375,0.0
1699109049.17214,-94.23828125,-47.8515625,-24.90234375,-31.73828125,0.0
1699109049.1760437,90.8203125,30.76171875,-2.44140625,-11.71875,0.0
1699109049.1800842,46.38671875,27.83203125,-12.20703125,-19.04296875,0.0
1699109049.183988,-130.37109375,-55.6640625,-52.734375,-28.3203125,0.0
1699109049.1878917,-130.859375,-40.52734375,-57.6171875,-36.62109375,0.0
1699109049.1917956,32.2265625,39.55078125,-18.5546875,-33.203125,0.0
1699109049.1956992,85.9375,9.765625,-23.92578125,-20.01953125,0.0
1699109049.1996028,-104.00390625,-84.9609375,-62.01171875,-33.69140625,0.0
1699109049.2035067,-135.7421875,-45.41015625,-49.8046875,-45.8984375,0.0
1699109049.2074103,7.32421875,42.48046875,-11.71875,-37.109375,0.0
1699109049.2113142,133.7890625,46.875,-8.30078125,-26.3671875,0.0
1699109049.2152178,-38.57421875,-92.28515625,-66.40625,-39.0625,0.0
1699109049.2191217,-135.25390625,-89.84375,-65.4296875,-49.8046875,0.0
1699109049.2230253,-51.7578125,34.66796875,-34.1796875,-57.6171875,0.0
1699109049.2270482,114.2578125,47.36328125,-37.109375,-40.52734375,0.0
1699109049.2309518,-1.953125,13.18359375,-44.43359375,-54.19921875,0.0
1699109049.2348557,-165.0390625,6.34765625,-43.9453125,-75.68359375,0.0
1699109049.2387593,-117.1875,16.11328125,-28.3203125,-61.03515625,0.0
1699109049.2426631,77.63671875,20.99609375,-11.71875,-31.25,0.0
1699109049.2465668,53.7109375,-5.37109375,-24.4140625,-29.296875,0.0
1699109049.2504704,-140.625,-15.625,-30.76171875,-48.33984375,0.0
1699109049.2543743,-139.16015625,34.1796875,-8.30078125,-54.19921875,0.0
1699109049.258278,29.78515625,13.18359375,-11.71875,-43.9453125,0.0
1699109049.2621818,104.4921875,-10.7421875,-23.92578125,-38.57421875,0.0
1699109049.2660854,-96.19140625,4.39453125,-17.08984375,-63.4765625,0.0
1699109049.2699893,-152.83203125,16.6015625,-17.578125,-69.82421875,0.0
1699109049.2740219,-10.7421875,-2.44140625,-30.2734375,-52.24609375,0.0
1699109049.2779255,125.0,-26.3671875,-22.4609375,-33.69140625,0.0
1699109049.2818294,-54.6875,17.08984375,-7.32421875,-60.546875,0.0
1699109049.285733,-175.78125,20.5078125,-20.01953125,-85.9375,0.0
1699109049.2896369,-85.9375,-17.08984375,-32.71484375,-71.2890625,0.0
1699109049.2935405,108.3984375,-2.9296875,-18.06640625,-46.38671875,0.0
1699109049.2974443,15.625,12.20703125,-16.11328125,-61.5234375,0.0
1699109049.301348,-155.76171875,4.8828125,-32.71484375,-86.42578125,0.0
1699109049.3052516,-106.4453125,-87.40234375,-47.36328125,-57.12890625,0.0
1699109049.3091555,81.0546875,-36.62109375,-18.06640625,-41.9921875,0.0
1699109049.313059,52.24609375,56.640625,-5.859375,-70.3125,0.0
1699109049.316963,-158.203125,-65.4296875,-50.29296875,-86.42578125,0.0
1699109049.320984,-155.76171875,-64.453125,-46.38671875,-76.171875,0.0
1699109049.3248875,47.36328125,48.828125,-9.765625,-51.7578125,0.0
1699109049.3287914,124.51171875,60.05859375,-23.92578125,-38.57421875,0.0
1699109049.332695,-119.62890625,-42.96875,-70.3125,-61.5234375,0.0
1699109049.3365989,-175.78125,-83.0078125,-67.3828125,-74.21875,0.0
1699109049.3405025,-19.53125,-11.71875,-31.25,-45.8984375,0.0
1699109049.3444064,151.85546875,28.80859375,-10.25390625,-18.06640625,0.0
1699109049.34831,-39.0625,-50.29296875,-47.36328125,-38.57421875,0.0
1699109049.3522136,-175.29296875,-65.91796875,-53.22265625,-64.94140625,0.0
1699109049.3561175,-69.3359375,7.8125,-30.2734375,-67.3828125,0.0
1699109049.360021,141.11328125,75.68359375,-5.37109375,-47.8515625,0.0
1699109049.363925,38.57421875,-25.87890625,-43.9453125,-44.921875,0.0
1699109049.3679438,-152.34375,-106.4453125,-71.77734375,-58.59375,0.0
1699109049.3718474,-112.3046875,10.25390625,-32.71484375,-74.21875,0.0
1699109049.3757513,109.375,74.21875,-8.30078125,-56.15234375,0.0
1699109049.379655,112.3046875,19.04296875,-23.4375,-50.78125,0.0
1699109049.3835588,-139.6484375,-41.9921875,-50.78125,-80.56640625,0.0
1699109049.3874624,-163.0859375,-38.0859375,-43.45703125,-84.47265625,0.0
1699109049.3913662,23.92578125,17.578125,-11.71875,-61.03515625,0.0
1699109049.3952699,141.6015625,-36.1328125,-24.90234375,-33.203125,0.0
1699109049.3991737,-94.23828125,-89.35546875,-52.24609375,-56.15234375,0.0
1699109049.4030774,-189.94140625,28.3203125,-23.92578125,-82.03125,0.0
1699109049.406981,-39.0625,37.109375,-12.6953125,-64.94140625,0.0
1699109049.4108849,166.50390625,49.31640625,-6.8359375,-41.015625,0.0
1699109049.4149013,-16.11328125,24.90234375,-30.76171875,-54.19921875,0.0
1699109049.4188051,-178.22265625,-4.8828125,-46.38671875,-68.84765625,0.0
1699109049.4227087,-79.58984375,3.90625,-46.38671875,-61.5234375,0.0
1699109049.4266126,140.625,46.875,-28.80859375,-35.64453125,0.0
1699109049.4305162,47.36328125,-6.34765625,-34.66796875,-38.57421875,0.0
1699109049.43442,-171.875,-69.3359375,-46.38671875,-69.82421875,0.0
1699109049.4383237,-128.41796875,-28.3203125,-46.38671875,-55.6640625,0.0
1699109049.4422276,80.56640625,2.9296875,-34.66796875,-28.3203125,0.0
1699109049.4461312,101.07421875,56.15234375,-2.44140625,-43.9453125,0.0
1699109049.450035,-126.953125,26.3671875,-22.4609375,-62.5,0.0
1699109049.4539387,-139.16015625,-39.0625,-41.015625,-52.734375,0.0
1699109049.4578426,33.69140625,4.8828125,-16.11328125,-43.9453125,0.0
1699109049.4618595,159.1796875,68.359375,0.48828125,-29.78515625,0.0
1699109049.4657633,-65.4296875,14.6484375,-32.2265625,-41.50390625,0.0
1699109049.469667,-164.0625,-55.6640625,-54.6875,-48.828125,0.0
1699109049.4735708,-30.76171875,-7.32421875,-32.71484375,-36.62109375,0.0
1699109049.4774745,165.0390625,55.6640625,-7.32421875,-17.08984375,0.0
1699109049.4813783,6.8359375,-30.2734375,-32.2265625,-21.484375,0.0
1699109049.485282,-155.2734375,-114.74609375,-53.22265625,-32.71484375,0.0
1699109049.4891858,-91.796875,-66.40625,-31.73828125,-33.203125,0.0
1699109049.4930894,123.53515625,98.14453125,23.92578125,-22.94921875,0.0
1699109049.4969933,71.2890625,42.48046875,-1.46484375,-18.06640625,0.0
1699109049.500897,-171.38671875,-59.5703125,-43.9453125,-41.50390625,0.0
1699109049.5048008,-160.15625,-25.87890625,-44.43359375,-51.7578125,0.0
1699109049.5088155,49.31640625,21.484375,-31.73828125,-34.66796875,0.0
1699109049.5127192,112.3046875,-20.99609375,-25.87890625,-18.5546875,0.0
1699109049.516623,-147.4609375,-45.41015625,-29.296875,-41.015625,0.0
1699109049.5205266,-199.70703125,-2.44140625,-21.97265625,-50.78125,0.0
1699109049.5244305,-20.01953125,12.6953125,-9.27734375,-23.92578125,0.0
1699109049.5283341,140.625,7.32421875,-4.39453125,-5.37109375,0.0
1699109049.532238,-75.1953125,-48.828125,-46.38671875,-29.78515625,0.0
1699109049.5361416,-207.03125,-9.765625,-45.8984375,-39.55078125,0.0
1699109049.5400455,-88.37890625,53.7109375,-6.34765625,-29.78515625,0.0
1699109049.5439491,148.4375,22.4609375,-8.7890625,-8.7890625,0.0
1699109049.547853,18.5546875,-39.55078125,-42.48046875,-16.6015625,0.0
1699109049.5517566,-197.265625,6.34765625,-45.41015625,-49.31640625,0.0
1699109049.5557814,-134.765625,12.6953125,-42.96875,-49.31640625,0.0
1699109049.5596852,106.4453125,20.01953125,-15.625,-9.765625,0.0
1699109049.5635889,74.21875,8.7890625,-23.4375,-2.44140625,0.0
1699109049.5674927,-162.109375,-47.36328125,-55.6640625,-28.80859375,0.0
1699109049.5713964,-156.73828125,-53.7109375,-55.6640625,-28.80859375,0.0
1699109049.5753002,57.12890625,-71.2890625,-52.734375,-3.41796875,0.0
1699109049.5792038,143.5546875,-41.50390625,-39.0625,16.6015625,0.0
1699109049.5831077,-104.4921875,15.13671875,-39.0625,-13.671875,0.0
1699109049.5870116,-154.78515625,-8.30078125,-44.43359375,-26.3671875,0.0
1699109049.5909152,2.44140625,0.48828125,-22.94921875,-9.27734375,0.0
1699109049.594819,177.24609375,36.62109375,-19.04296875,9.765625,0.0
1699109049.5987227,-31.25,-4.8828125,-45.8984375,-18.5546875,0.0
1699109049.6027455,-178.7109375,-53.7109375,-45.8984375,-35.64453125,0.0
1699109049.6066492,-70.80078125,-42.96875,-27.83203125,-23.4375,0.0
1699109049.610553,149.90234375,43.45703125,7.8125,-11.23046875,0.0
1699109049.6144567,29.78515625,12.20703125,-18.06640625,-19.53125,0.0
1699109049.6183605,-171.875,-75.68359375,-75.1953125,-31.25,0.0
1699109049.6222641,-129.39453125,-72.75390625,-61.5234375,-28.80859375,0.0
1699109049.626168,96.19140625,20.5078125,0.48828125,-5.859375,0.0
1699109049.6300716,109.86328125,43.45703125,10.7421875,1.953125,0.0
1699109049.6339755,-145.5078125,-24.4140625,-34.1796875,-23.4375,0.0
1699109049.6378791,-156.25,-70.80078125,-56.640625,-17.578125,0.0
1699109049.641783,39.55078125,43.9453125,3.41796875,-6.34765625,0.0
1699109049.6456866,143.06640625,84.9609375,20.99609375,1.953125,0.0
1699109049.649707,-101.5625,-53.22265625,-39.55078125,-18.06640625,0.0
1699109049.6536107,-181.640625,-61.5234375,-42.48046875,-32.71484375,0.0
1699109049.6575146,-36.62109375,18.06640625,-9.27734375,-19.04296875,0.0
1699109049.6614182,156.73828125,35.64453125,-2.44140625,2.9296875,0.0
1699109049.665322,-29.78515625,-54.19921875,-39.0625,-8.7890625,0.0
1699109049.6692257,-190.91796875,-87.890625,-57.12890625,-25.87890625,0.0
1699109049.6731296,-115.72265625,-7.32421875,-27.83203125,-29.78515625,0.0
1699109049.6770332,102.5390625,69.82421875,1.46484375,-20.99609375,0.0
1699109049.680937,34.1796875,-66.40625,-46.875,-8.30078125,0.0
1699109049.684841,-184.5703125,-107.91015625,-66.89453125,-29.78515625,0.0
1699109049.6887445,-159.66796875,36.1328125,-32.2265625,-53.22265625,0.0
1699109049.6926484,63.4765625,51.26953125,-15.625,-27.83203125,0.0
1699109049.6966693,99.609375,20.5078125,-14.6484375,-12.6953125,0.0
1699109049.700573,-147.4609375,-32.71484375,-47.8515625,-40.0390625,0.0
1699109049.7044768,-180.17578125,-25.87890625,-61.5234375,-46.875,0.0
1699109049.7083805,18.06640625,14.6484375,-45.41015625,-17.08984375,0.0
1699109049.7122843,169.43359375,-11.23046875,-35.64453125,-0.48828125,0.0
1699109049.7161882,-69.82421875,-70.80078125,-44.921875,-22.94921875,0.0
1699109049.7200918,-174.31640625,-50.29296875,-43.45703125,-30.2734375,0.0
1699109049.7239957,-36.1328125,-0.9765625,-36.62109375,-20.99609375,0.0
1699109049.7278993,182.6171875,-10.25390625,-22.94921875,10.7421875,0.0
1699109049.7318032,13.18359375,-4.39453125,-16.11328125,0.48828125,0.0
1699109049.7357068,-167.48046875,9.27734375,-28.3203125,-20.5078125,0.0
1699109049.7396107,-90.8203125,-35.15625,-49.8046875,-13.671875,0.0
1699109049.7436295,127.9296875,16.6015625,-22.94921875,3.90625,0.0
1699109049.747533,58.10546875,46.875,-13.671875,-2.44140625,0.0
1699109049.751437,-170.8984375,-14.6484375,-43.9453125,-26.85546875,0.0
1699109049.7553406,-140.625,-39.55078125,-48.828125,-24.4140625,0.0
1699109049.7592444,63.4765625,5.859375,-16.6015625,-3.90625,0.0
1699109049.763148,123.53515625,4.8828125,-10.7421875,14.6484375,0.0
1699109049.767052,-123.046875,-20.5078125,-30.76171875,-1.953125,0.0
1699109049.7709556,-163.57421875,-66.40625,-43.45703125,-0.9765625,0.0
1699109049.7748594,16.6015625,-46.38671875,-29.296875,8.7890625,0.0
1699109049.7787633,173.33984375,95.703125,12.6953125,8.7890625,0.0
1699109049.782667,-51.7578125,4.8828125,-25.87890625,-3.41796875,0.0
1699109049.7865708,-190.4296875,-51.7578125,-45.8984375,-17.08984375,0.0
1699109049.790587,-79.1015625,15.13671875,-22.4609375,-13.18359375,0.0
1699109049.7944908,145.5078125,54.6875,-2.9296875,8.30078125,0.0
1699109049.7983944,12.6953125,-15.625,-34.1796875,4.8828125,0.0
1699109049.8022983,-183.10546875,-32.2265625,-48.828125,-13.671875,0.0
1699109049.806202,-122.0703125,12.6953125,-31.73828125,-8.30078125,0.0
1699109049.8101058,114.2578125,57.12890625,-12.20703125,14.6484375,0.0
1699109049.8140094,95.703125,24.90234375,-44.43359375,10.25390625,0.0
1699109049.8179133,-151.85546875,-74.70703125,-90.33203125,-15.625,0.0
1699109049.8218172,-148.92578125,8.30078125,-41.50390625,-20.01953125,0.0
1699109049.8257208,61.5234375,104.98046875,1.46484375,-4.39453125,0.0
1699109049.8296247,148.92578125,38.0859375,-14.16015625,7.8125,0.0
1699109049.8335283,-95.21484375,-44.921875,-40.52734375,-11.71875,0.0
1699109049.8375425,-149.4140625,-6.8359375,-29.78515625,-27.83203125,0.0
1699109049.8414464,1.46484375,36.1328125,-11.23046875,-21.97265625,0.0
1699109049.84535,176.26953125,17.578125,-9.27734375,5.37109375,0.0
1699109049.849254,-24.4140625,-20.99609375,-33.69140625,-9.27734375,0.0
1699109049.8531575,-173.828125,-30.2734375,-45.41015625,-31.25,0.0
1699109049.8570614,-61.03515625,-18.5546875,-37.59765625,-26.3671875,0.0
1699109049.860965,168.45703125,-15.625,-33.203125,-0.48828125,0.0
1699109049.8648689,40.0390625,-41.015625,-48.33984375,-2.9296875,0.0
1699109049.8687727,-185.546875,20.99609375,-32.71484375,-45.41015625,0.0
1699109049.8726764,-138.18359375,-1.953125,-37.59765625,-47.8515625,0.0
1699109049.8765802,79.58984375,26.3671875,-18.5546875,-22.94921875,0.0
1699109049.8804839,65.4296875,41.9921875,-15.625,-29.78515625,0.0
1699109049.8844986,-185.546875,-23.4375,-52.24609375,-57.6171875,0.0
1699109049.8884025,-184.5703125,-43.9453125,-52.734375,-45.8984375,0.0
1699109049.892306,14.6484375,10.25390625,-20.01953125,-22.4609375,0.0
1699109049.89621,117.67578125,62.01171875,2.9296875,-24.90234375,0.0
1699109049.9001138,-128.90625,-21.97265625,-43.9453125,-48.33984375,0.0
1699109049.9040174,-207.51953125,-65.4296875,-76.66015625,-46.875,0.0
1699109049.9079213,-38.0859375,-18.06640625,-31.73828125,-12.20703125,0.0
1699109049.911825,153.3203125,59.5703125,12.6953125,-9.27734375,0.0
1699109049.9157288,-66.40625,10.25390625,-16.6015625,-60.05859375,0.0
1699109049.9196324,-231.4453125,-45.41015625,-41.50390625,-71.77734375,0.0
1699109049.9235363,-124.51171875,-19.04296875,-29.78515625,-50.29296875,0.0
1699109049.9274402,106.93359375,78.61328125,9.765625,-38.0859375,0.0
1699109049.931465,20.01953125,45.41015625,-6.34765625,-42.96875,0.0
1699109049.9353688,-188.96484375,-53.22265625,-49.8046875,-50.29296875,0.0
1699109049.9392726,-150.87890625,-19.53125,-46.875,-52.24609375,0.0
1699109049.9431763,67.3828125,75.1953125,-4.39453125,-31.25,0.0
1699109049.9470801,110.3515625,39.55078125,-8.7890625,-8.7890625,0.0
1699109049.9509838,-128.90625,-112.3046875,-64.453125,-20.99609375,0.0
1699109049.9548876,-156.25,-83.0078125,-55.6640625,-29.296875,0.0
1699109049.9587913,30.2734375,81.54296875,-4.39453125,-16.6015625,0.0
1699109049.9626951,170.41015625,78.125,-9.765625,0.0,0.0
1699109049.966599,-60.05859375,-35.64453125,-48.33984375,-16.6015625,0.0
1699109049.9705026,-161.1328125,-60.546875,-50.29296875,-27.34375,0.0
1699109049.9744065,-27.83203125,15.625,-11.71875,-20.99609375,0.0
1699109049.9784288,181.15234375,67.87109375,5.37109375,-5.859375,0.0
1699109049.9823327,22.94921875,-4.8828125,-27.83203125,-8.30078125,0.0
1699109049.9862366,-148.4375,-17.08984375,-41.9921875,-19.53125,0.0
1699109049.9901402,-78.61328125,13.671875,-36.1328125,-20.01953125,0.0
1699109049.994044,149.4140625,27.34375,-29.78515625,6.34765625,0.0
1699109049.9979477,88.8671875,-22.4609375,-41.9921875,12.20703125,0.0
1699109050.0018516,-154.78515625,-43.45703125,-40.0390625,-14.16015625,0.0
1699109050.0057554,-139.16015625,4.8828125,-25.390625,-29.78515625,0.0
1699109050.009659,77.63671875,22.4609375,-30.76171875,-11.71875,0.0
1699109050.013563,136.71875,-24.4140625,-35.15625,16.11328125,0.0
1699109050.0174668,-130.859375,-24.4140625,-22.94921875,-10.25390625,0.0
1699109050.0213704,-170.8984375,9.27734375,-12.20703125,-22.94921875,0.0
1699109050.0253906,5.859375,21.484375,-1.46484375,-4.39453125,0.0
1699109050.0292945,165.0390625,7.8125,-1.953125,13.671875,0.0
1699109050.033198,-51.7578125,-15.13671875,-15.13671875,-0.9765625,0.0
1699109050.037102,-186.03515625,-11.71875,-16.6015625,-18.5546875,0.0
1699109050.0410058,-60.546875,-22.4609375,-10.7421875,-3.90625,0.0
1699109050.0449095,161.1328125,-8.30078125,-10.25390625,14.6484375,0.0
1699109050.0488133,-13.671875,-24.4140625,-30.2734375,-23.92578125,0.0
1699109050.0527172,-225.5859375,-35.15625,-23.92578125,-48.828125,0.0
1699109050.0566208,-143.5546875,-82.51953125,-38.0859375,-25.87890625,0.0
1699109050.0605247,89.84375,-5.859375,-12.20703125,-10.25390625,0.0
1699109050.0644283,61.03515625,62.01171875,1.953125,-10.7421875,0.0
1699109050.0683322,-179.19921875,-18.06640625,-43.9453125,-26.85546875,0.0
1699109050.0723503,-158.203125,-88.8671875,-54.19921875,-23.4375,0.0
1699109050.076254,51.26953125,0.0,-23.4375,-10.25390625,0.0
1699109050.0801578,131.34765625,81.54296875,-18.06640625,-10.25390625,0.0
1699109050.0840616,-103.02734375,-43.9453125,-62.5,-24.4140625,0.0
1699109050.0879653,-153.3203125,-73.73046875,-60.05859375,-25.390625,0.0
1699109050.091869,5.37109375,-0.48828125,-38.0859375,-18.5546875,0.0
1699109050.0957727,184.08203125,48.33984375,-26.85546875,-2.44140625,0.0
1699109050.0996766,-18.5546875,-20.5078125,-49.8046875,-17.578125,0.0
1699109050.1035805,-164.0625,-82.03125,-64.453125,-31.25,0.0
1699109050.107484,-63.4765625,20.99609375,-37.109375,-21.484375,0.0
1699109050.111388,172.8515625,116.69921875,1.953125,2.9296875,0.0
1699109050.1152918,63.4765625,6.8359375,-24.4140625,-3.41796875,0.0
1699109050.1193104,-155.2734375,-44.921875,-44.921875,-23.92578125,0.0
1699109050.1232142,-107.91015625,10.7421875,-13.671875,-15.625,0.0
1699109050.1271179,125.48828125,56.15234375,6.34765625,12.20703125,0.0
1699109050.1310217,129.39453125,10.7421875,-12.6953125,15.625,0.0
1699109050.1349256,-134.27734375,-62.5,-50.78125,-16.6015625,0.0
1699109050.1388292,-141.6015625,-48.33984375,-47.36328125,-20.99609375,0.0
1699109050.142733,66.40625,29.296875,-14.16015625,0.0,0.0
1699109050.146637,170.41015625,-7.32421875,-26.85546875,19.53125,0.0
1699109050.1505406,-87.890625,-62.98828125,-48.828125,-8.30078125,0.0
1699109050.1544445,-187.5,42.96875,-17.08984375,-37.59765625,0.0
1699109050.158348,-32.2265625,51.26953125,-12.20703125,-15.13671875,0.0
1699109050.162252,166.50390625,52.24609375,-3.41796875,9.27734375,0.0
1699109050.166268,-24.4140625,27.34375,-16.11328125,-10.25390625,0.0
1699109050.170172,-183.59375,3.41796875,-31.25,-32.2265625,0.0
1699109050.1740758,-94.7265625,5.37109375,-31.25,-24.4140625,0.0
1699109050.1779795,133.7890625,23.92578125,-22.94921875,3.90625,0.0
1699109050.1818833,43.9453125,-14.16015625,-34.1796875,-9.765625,0.0
1699109050.1857872,-186.03515625,-55.17578125,-48.33984375,-38.0859375,0.0
1699109050.1896908,-157.2265625,-43.9453125,-42.48046875,-32.2265625,0.0
1699109050.1935947,77.1484375,-16.6015625,-25.87890625,-6.8359375,0.0
1699109050.1974986,106.93359375,28.3203125,-7.32421875,-8.7890625,0.0
1699109050.2014022,-151.3671875,-30.76171875,-26.85546875,-31.73828125,0.0
1699109050.205306,-154.78515625,-80.078125,-51.26953125,-24.90234375,0.0
1699109050.20921,22.4609375,0.0,-45.8984375,-22.4609375,0.0
1699109050.2132237,151.85546875,59.5703125,-20.01953125,-7.8125,0.0
1699109050.2171276,-68.84765625,-14.6484375,-39.55078125,-15.625,0.0
1699109050.2210314,-163.0859375,-74.70703125,-52.734375,-27.34375,0.0
1699109050.224935,-30.76171875,-17.578125,-22.94921875,-19.04296875,0.0
1699109050.228839,166.9921875,38.0859375,0.0,-0.48828125,0.0
1699109050.2327428,-3.41796875,-35.15625,-36.62109375,-15.625,0.0
1699109050.2366464,-174.31640625,-126.953125,-71.2890625,-24.4140625,0.0
1699109050.2405503,-108.88671875,-82.51953125,-53.22265625,-23.92578125,0.0
1699109050.2444541,110.3515625,87.40234375,-6.8359375,-19.53125,0.0
1699109050.2483578,70.3125,27.83203125,-20.5078125,-9.765625,0.0
1699109050.2522616,-163.0859375,-70.3125,-49.31640625,-29.78515625,0.0
1699109050.2561655,-145.99609375,-43.9453125,-47.36328125,-31.25,0.0
1699109050.26018,67.3828125,8.7890625,-20.99609375,-4.39453125,0.0
1699109050.2640839,128.41796875,-3.41796875,-13.671875,5.37109375,0.0
1699109050.2679875,-124.51171875,-62.5,-46.38671875,-29.296875,0.0
1699109050.2718914,-175.29296875,-42.96875,-48.33984375,-43.9453125,0.0
1699109050.2757952,-3.90625,-18.06640625,-29.296875,-25.390625,0.0
1699109050.2796988,158.69140625,1.46484375,-20.5078125,-8.30078125,0.0
1699109050.2836027,-53.22265625,-48.828125,-40.52734375,-18.06640625,0.0
1699109050.2875066,-186.5234375,-23.4375,-30.76171875,-41.9921875,0.0
1699109050.2914102,-68.359375,31.25,-20.99609375,-43.9453125,0.0
1699109050.295314,171.875,21.97265625,-24.90234375,-16.6015625,0.0
1699109050.299218,30.2734375,-27.34375,-31.25,-28.80859375,0.0
1699109050.3031216,-171.38671875,-20.5078125,-22.4609375,-50.29296875,0.0
1699109050.307134,-104.4921875,-3.41796875,-27.34375,-40.0390625,0.0
1699109050.3110375,116.2109375,8.7890625,-28.80859375,-17.08984375,0.0
1699109050.3149414,83.0078125,-29.78515625,-38.0859375,-16.6015625,0.0
1699109050.3188453,-155.2734375,-53.22265625,-43.45703125,-39.55078125,0.0
1699109050.322749,-145.01953125,-14.16015625,-20.5078125,-40.0390625,0.0
1699109050.3266528,68.359375,-39.55078125,-24.90234375,-14.6484375,0.0
1699109050.3305566,155.76171875,-23.4375,-32.71484375,-8.7890625,0.0
1699109050.3344603,-102.5390625,22.94921875,-32.71484375,-41.50390625,0.0
1699109050.3383641,-166.015625,-5.37109375,-33.203125,-43.9453125,0.0
1699109050.342268,-2.44140625,-2.9296875,-18.06640625,-19.04296875,0.0
1699109050.3461716,167.48046875,62.5,-5.859375,-2.44140625,0.0
1699109050.3500755,-33.203125,17.08984375,-39.0625,-25.87890625,0.0
1699109050.3541105,-164.0625,-42.96875,-51.26953125,-34.66796875,0.0
1699109050.3580143,-58.10546875,-4.39453125,-22.94921875,-18.5546875,0.0
1699109050.3619182,160.64453125,67.87109375,5.859375,1.953125,0.0
1699109050.3658218,39.0625,11.23046875,-29.296875,-8.30078125,0.0
1699109050.3697257,-156.25,-77.1484375,-59.08203125,-19.53125,0.0
1699109050.3736296,-112.79296875,-60.546875,-37.109375,-17.08984375,0.0
1699109050.3775332,99.609375,7.8125,-1.46484375,0.0,0.0
1699109050.381437,99.12109375,16.11328125,-2.9296875,-1.46484375,0.0
1699109050.385341,-139.16015625,-41.9921875,-34.1796875,-19.04296875,0.0
1699109050.3892448,-148.4375,-68.359375,-43.9453125,-14.6484375,0.0
1699109050.3931484,27.34375,40.0390625,-3.41796875,-13.18359375,0.0
1699109050.3970523,144.53125,66.40625,0.48828125,-1.953125,0.0
1699109050.4010723,-84.9609375,-59.5703125,-49.8046875,-10.7421875,0.0
1699109050.4049761,-166.9921875,-57.12890625,-47.8515625,-25.390625,0.0
1699109050.40888,-13.18359375,20.5078125,-21.484375,-18.5546875,0.0
1699109050.4127836,179.6875,43.9453125,-10.7421875,1.46484375,0.0
1699109050.4166875,-11.71875,-47.8515625,-37.109375,-5.859375,0.0
1699109050.4205914,-176.7578125,-93.26171875,-57.6171875,-18.06640625,0.0
1699109050.424495,-96.19140625,-4.39453125,-36.1328125,-22.94921875,0.0
1699109050.4283988,139.6484375,55.6640625,-3.41796875,-8.30078125,0.0
1699109050.4323027,59.5703125,-49.8046875,-46.38671875,0.9765625,0.0
1699109050.4362063,-167.48046875,-60.546875,-75.68359375,-26.85546875,0.0
1699109050.4401102,-117.1875,-6.8359375,-41.015625,-26.3671875,0.0
1699109050.444014,107.421875,16.6015625,-14.6484375,0.9765625,0.0
1699109050.448032,128.41796875,-43.45703125,-36.1328125,16.11328125,0.0
1699109050.4519358,-133.30078125,-62.01171875,-54.19921875,-13.18359375,0.0
1699109050.4558396,-170.8984375,41.50390625,-36.62109375,-44.43359375,0.0
1699109050.4597433,24.4140625,29.78515625,-30.76171875,-24.90234375,0.0
1699109050.4636471,171.875,10.7421875,-16.11328125,0.9765625,0.0
1699109050.467551,-60.546875,-45.41015625,-38.57421875,-23.92578125,0.0
1699109050.4714546,-167.48046875,-32.2265625,-40.0390625,-44.921875,0.0
1699109050.4753585,-32.71484375,18.5546875,-16.6015625,-33.203125,0.0
1699109050.4792624,186.5234375,4.8828125,-14.16015625,-5.859375,0.0
1699109050.4831662,15.625,15.625,-18.5546875,-27.34375,0.0
1699109050.4870698,-173.828125,9.27734375,-26.3671875,-61.03515625,0.0
1699109050.4909737,-87.40234375,-29.78515625,-33.203125,-43.9453125,0.0
1699109050.4949925,136.71875,22.4609375,-9.765625,-20.5078125,0.0
1699109050.4988964,67.87109375,31.73828125,-9.765625,-25.87890625,0.0
1699109050.5028002,-164.0625,-20.5078125,-33.203125,-49.31640625,0.0
1699109050.5067039,-145.5078125,-53.22265625,-41.9921875,-43.9453125,0.0
1699109050.5106077,65.91796875,-1.46484375,-20.99609375,-18.06640625,0.0
1699109050.5145116,123.046875,10.25390625,-15.625,-11.23046875,0.0
1699109050.5184155,-134.765625,-55.6640625,-36.62109375,-36.1328125,0.0
1699109050.522319,-169.43359375,-108.88671875,-45.41015625,-23.4375,0.0
1699109050.526223,12.20703125,-40.0390625,-11.71875,6.34765625,0.0
1699109050.5301268,158.69140625,106.4453125,27.83203125,0.48828125,0.0
1699109050.5340304,-73.73046875,1.953125,-22.94921875,-28.80859375,0.0
1699109050.5379343,-202.1484375,-66.40625,-48.828125,-41.9921875,0.0
1699109050.541951,-77.1484375,2.44140625,-26.3671875,-36.1328125,0.0
1699109050.5458548,142.578125,36.62109375,-7.8125,-13.671875,0.0
1699109050.5497584,-3.90625,-45.41015625,-41.9921875,-22.4609375,0.0
1699109050.5536623,-194.3359375,-76.66015625,-57.6171875,-46.875,0.0
1699109050.5575662,-132.32421875,-49.31640625,-33.203125,-44.43359375,0.0
1699109050.56147,94.23828125,2.9296875,-16.11328125,-25.87890625,0.0
1699109050.5653737,67.87109375,-3.90625,-27.83203125,-22.4609375,0.0
1699109050.5692775,-165.52734375,-84.9609375,-46.875,-36.1328125,0.0
1699109050.5731814,-154.296875,-25.390625,-21.97265625,-41.015625,0.0
1699109050.5770853,42.96875,69.3359375,1.953125,-34.66796875,0.0
1699109050.580989,134.27734375,-0.48828125,-21.97265625,-16.6015625,0.0
1699109050.5848927,-110.83984375,-60.05859375,-50.29296875,-33.69140625,0.0
1699109050.588907,-176.7578125,-18.5546875,-40.0390625,-51.7578125,0.0
1699109050.5928106,-2.44140625,18.5546875,-10.25390625,-29.78515625,0.0
1699109050.5967145,179.6875,3.90625,-10.25390625,-6.34765625,0.0
1699109050.6006184,-33.203125,-67.87109375,-36.62109375,-23.4375,0.0
1699109050.6045222,-172.36328125,-80.56640625,-41.50390625,-42.48046875,0.0
1699109050.6084259,-61.03515625,-43.45703125,-34.1796875,-30.76171875,0.0
1699109050.6123297,169.43359375,-31.25,-17.578125,5.37109375,0.0
1699109050.6162336,43.45703125,-43.9453125,-21.484375,0.48828125,0.0
1699109050.6201375,-178.22265625,19.04296875,-20.5078125,-34.66796875,0.0
1699109050.624041,-125.9765625,1.953125,-26.3671875,-33.203125,0.0
1699109050.627945,103.515625,23.92578125,-6.34765625,-6.8359375,0.0
1699109050.6318488,101.5625,37.109375,-1.953125,1.953125,0.0
1699109050.6358604,-148.4375,-10.7421875,-38.0859375,-24.4140625,0.0
1699109050.6397643,-157.71484375,-41.50390625,-44.921875,-26.85546875,0.0
1699109050.6436682,37.59765625,-1.46484375,-11.71875,-7.8125,0.0
1699109050.647572,150.87890625,35.64453125,5.37109375,-0.9765625,0.0
1699109050.6514757,-87.40234375,-40.52734375,-25.390625,-19.04296875,0.0
1699109050.6553795,-172.8515625,-52.734375,-41.015625,-35.64453125,0.0
1699109050.6592834,-21.97265625,-48.33984375,-37.59765625,-11.71875,0.0
1699109050.6631873,168.9453125,23.92578125,-1.953125,2.9296875,0.0
1699109050.667091,-30.2734375,37.109375,-5.37109375,-22.94921875,0.0
1699109050.6709948,-187.01171875,-41.015625,-29.296875,-30.2734375,0.0
1699109050.6748986,-91.796875,-20.01953125,-27.83203125,-24.4140625,0.0
1699109050.6788025,139.16015625,62.98828125,-3.90625,-0.9765625,0.0
1699109050.6828148,47.8515625,19.04296875,-6.34765625,-3.90625,0.0
1699109050.6867187,-182.12890625,-70.3125,-27.83203125,-24.90234375,0.0
1699109050.6906226,-155.76171875,-49.8046875,-24.4140625,-26.3671875,0.0
1699109050.6945264,73.73046875,46.875,14.6484375,-11.23046875,0.0
1699109050.69843,107.421875,25.87890625,0.9765625,-5.859375,0.0
1699109050.702334,-141.11328125,-104.98046875,-58.59375,-22.94921875,0.0
1699109050.7062378,-160.64453125,-87.40234375,-49.8046875,-33.69140625,0.0
1699109050.7101417,18.5546875,49.8046875,-9.765625,-34.1796875,0.0
1699109050.7140453,164.55078125,64.453125,-8.7890625,-17.578125,0.0
1699109050.7179492,-52.734375,-79.1015625,-50.29296875,-24.90234375,0.0
1699109050.721853,-158.203125,-75.1953125,-51.7578125,-46.875,0.0
1699109050.725757,-31.25,46.875,-10.25390625,-39.55078125,0.0
1699109050.7297795,184.08203125,54.19921875,0.48828125,-10.7421875,0.0
1699109050.7336833,19.04296875,-22.94921875,-31.73828125,-27.34375,0.0
1699109050.7375872,-166.015625,-27.83203125,-34.1796875,-41.015625,0.0
1699109050.741491,-100.5859375,15.625,-24.90234375,-25.390625,0.0
1699109050.7453947,136.71875,23.92578125,-16.11328125,6.34765625,0.0
1699109050.7492986,84.9609375,-22.94921875,-34.66796875,9.27734375,0.0
1699109050.7532024,-166.50390625,-41.50390625,-48.828125,-28.80859375,0.0
1699109050.7571063,-155.2734375,4.8828125,-28.80859375,-38.57421875,0.0
1699109050.76101,59.5703125,20.5078125,-11.71875,-10.7421875,0.0
1699109050.7649138,122.55859375,-24.90234375,-24.90234375,2.44140625,0.0
1699109050.7688177,-140.13671875,-30.76171875,-42.96875,-32.2265625,0.0
1699109050.7727215,-191.89453125,-15.13671875,-34.66796875,-42.48046875,0.0
1699109050.776742,2.44140625,-21.97265625,-22.94921875,-13.18359375,0.0
1699109050.7806458,165.52734375,-1.953125,-16.6015625,1.953125,0.0
1699109050.7845497,-74.21875,-15.13671875,-28.3203125,-29.78515625,0.0
1699109050.7884536,-199.70703125,-33.69140625,-36.1328125,-46.38671875,0.0
1699109050.7923572,-66.89453125,-43.9453125,-33.69140625,-29.296875,0.0
1699109050.796261,159.66796875,-28.3203125,-14.6484375,-2.44140625,0.0
1699109050.800165,0.0,-30.76171875,-27.83203125,-18.06640625,0.0
1699109050.8040688,-208.984375,-40.52734375,-40.0390625,-46.875,0.0
1699109050.8079727,-131.8359375,-110.83984375,-48.33984375,-27.34375,0.0
1699109050.8118763,96.19140625,-58.59375,-33.203125,-5.37109375,0.0
1699109050.8157802,48.828125,35.64453125,-9.27734375,-25.390625,0.0
1699109050.819684,-182.6171875,-43.45703125,-26.85546875,-28.80859375,0.0
1699109050.8237019,-166.015625,-50.78125,-30.76171875,-19.53125,0.0
1699109050.8276057,58.59375,23.4375,-12.20703125,-10.25390625,0.0
1699109050.8315096,153.3203125,27.83203125,-16.6015625,-6.34765625,0.0
1699109050.8354135,-98.14453125,-65.4296875,-52.734375,-28.80859375,0.0
1699109050.8393173,-157.71484375,-83.984375,-57.12890625,-30.2734375,0.0
1699109050.843221,5.859375,-26.3671875,-22.4609375,-16.11328125,0.0
1699109050.8471248,190.91796875,23.92578125,-1.46484375,0.9765625,0.0
1699109050.8510287,-16.6015625,-35.15625,-37.109375,-13.18359375,0.0
1699109050.8549325,-154.78515625,-103.515625,-54.19921875,-18.5546875,0.0
1699109050.8588364,-43.9453125,12.6953125,-14.16015625,-10.7421875,0.0
1699109050.86274,179.19921875,79.1015625,11.23046875,1.46484375,0.0
1699109050.866644,62.01171875,-47.8515625,-33.203125,-2.9296875,0.0
1699109050.8706627,-150.87890625,-70.80078125,-52.734375,-18.5546875,0.0
1699109050.8745666,-104.00390625,-13.18359375,-25.87890625,-21.484375,0.0
1699109050.8784704,120.1171875,44.43359375,2.9296875,-0.9765625,0.0
1699109050.8823743,125.9765625,-3.41796875,-18.5546875,3.90625,0.0
1699109050.886278,-131.8359375,-67.87109375,-45.8984375,-28.80859375,0.0
1699109050.8901818,-137.20703125,-50.29296875,-40.52734375,-35.64453125,0.0
1699109050.8940856,64.453125,-0.9765625,-15.13671875,-12.20703125,0.0
1699109050.8979895,159.66796875,-34.1796875,-14.6484375,7.32421875,0.0
1699109050.9018934,-97.65625,-88.8671875,-40.52734375,-19.53125,0.0
1699109050.905797,-193.359375,-5.859375,-19.04296875,-49.8046875,0.0
1699109050.9097009,-41.50390625,0.9765625,-17.578125,-36.62109375,0.0
1699109050.9136047,157.2265625,19.04296875,-13.671875,-13.18359375,0.0
1699109050.9176211,-22.94921875,5.37109375,-28.3203125,-30.76171875,0.0
1699109050.921525,-188.96484375,-16.11328125,-35.15625,-51.26953125,0.0
1699109050.9254289,-95.21484375,-12.20703125,-30.2734375,-40.52734375,0.0
1699109050.9293325,135.7421875,9.27734375,-24.90234375,-21.484375,0.0
1699109050.9332364,40.0390625,-26.85546875,-34.1796875,-33.203125,0.0
1699109050.9371402,-186.03515625,-65.91796875,-42.48046875,-50.29296875,0.0
1699109050.941044,-149.4140625,-53.7109375,-30.76171875,-43.9453125,0.0
1699109050.944948,78.125,-37.109375,-18.5546875,-16.11328125,0.0
1699109050.9488516,110.3515625,1.46484375,-13.671875,-13.18359375,0.0
1699109050.9527555,-139.16015625,-14.16015625,-43.9453125,-42.96875,0.0
1699109050.9566593,-162.59765625,-43.45703125,-63.4765625,-45.8984375,0.0
1699109050.9605632,27.34375,1.953125,-38.0859375,-27.83203125,0.0
1699109050.9645772,159.66796875,54.19921875,-13.18359375,-10.7421875,0.0
1699109050.968481,-85.9375,-14.6484375,-41.9921875,-22.94921875,0.0
1699109050.972385,-192.3828125,-65.4296875,-58.59375,-31.25,0.0
1699109050.9762888,-50.29296875,-20.5078125,-34.1796875,-24.4140625,0.0
1699109050.9801927,160.64453125,42.48046875,-8.30078125,-9.27734375,0.0
1699109050.9840965,-8.7890625,-28.80859375,-37.109375,-17.08984375,0.0
1699109050.9880002,-187.01171875,-115.234375,-63.96484375,-25.87890625,0.0
1699109050.991904,-112.3046875,-69.3359375,-37.59765625,-21.97265625,0.0
1699109050.995808,109.86328125,86.42578125,21.97265625,-19.53125,0.0
1699109050.9997118,46.875,22.94921875,-11.23046875,-21.484375,0.0
1699109051.0036156,-183.10546875,-63.4765625,-56.15234375,-37.109375,0.0
1699109051.0075192,-163.0859375,-51.7578125,-51.7578125,-39.55078125,0.0
1699109051.0115309,58.10546875,20.01953125,-4.39453125,-15.13671875,0.0
1699109051.0154345,116.2109375,23.4375,2.44140625,-1.953125,0.0
1699109051.0193384,-135.7421875,-60.546875,-41.9921875,-31.73828125,0.0
1699109051.0232422,-162.109375,-43.45703125,-26.3671875,-31.25,0.0
1699109051.027146,18.5546875,-15.625,-1.953125,-15.625,0.0
1699109051.03105,161.1328125,-3.41796875,-3.90625,-13.671875,0.0
1699109051.0349538,-67.3828125,-74.70703125,-37.59765625,-29.78515625,0.0
1699109051.0388575,-199.21875,-41.015625,-37.59765625,-55.6640625,0.0
1699109051.0427613,-80.56640625,9.27734375,-20.99609375,-50.78125,0.0
1699109051.0466652,152.83203125,0.48828125,-12.6953125,-12.6953125,0.0
1699109051.050569,18.06640625,-41.50390625,-28.80859375,-13.671875,0.0
1699109051.054473,-179.6875,-35.64453125,-26.85546875,-41.9921875,0.0
1699109051.0584948,-117.67578125,-14.6484375,-14.16015625,-41.50390625,0.0
1699109051.0623987,120.1171875,-11.23046875,-8.7890625,-7.32421875,0.0
1699109051.0663025,89.84375,-52.24609375,-29.296875,-3.41796875,0.0
1699109051.0702064,-164.0625,-48.828125,-39.55078125,-37.59765625,0.0
1699109051.07411,-153.80859375,-38.57421875,-39.55078125,-43.45703125,0.0
1699109051.078014,74.70703125,-84.47265625,-30.2734375,-9.27734375,0.0
1699109051.0819178,157.2265625,-67.3828125,-20.5078125,3.90625,0.0
1699109051.0858216,-102.5390625,-4.39453125,-21.97265625,-40.0390625,0.0
1699109051.0897255,-157.2265625,-16.11328125,-31.25,-53.7109375,0.0
1699109051.0936294,7.8125,-28.3203125,-36.62109375,-39.0625,0.0
1699109051.097533,180.6640625,20.01953125,-7.32421875,-25.390625,0.0
1699109051.1014369,-32.2265625,-18.06640625,-23.92578125,-40.0390625,0.0
1699109051.1054566,-172.8515625,-63.96484375,-55.6640625,-52.734375,0.0
1699109051.1093605,-58.10546875,-34.1796875,-44.43359375,-35.15625,0.0
1699109051.1132643,161.1328125,41.015625,-8.7890625,-10.7421875,0.0
1699109051.1171682,30.2734375,-7.8125,-27.34375,-19.04296875,0.0
1699109051.121072,-177.734375,-96.6796875,-59.08203125,-38.0859375,0.0
1699109051.1249757,-120.1171875,-68.359375,-45.8984375,-35.64453125,0.0
1699109051.1288795,102.5390625,-2.44140625,-21.97265625,-15.625,0.0
1699109051.1327834,86.42578125,17.08984375,-26.3671875,-14.6484375,0.0
1699109051.1366873,-156.73828125,-35.15625,-53.7109375,-40.52734375,0.0
1699109051.1405911,-159.1796875,-99.609375,-65.4296875,-32.2265625,0.0
1699109051.144495,26.85546875,34.66796875,-14.16015625,-20.99609375,0.0
1699109051.1483989,136.71875,96.6796875,-4.39453125,-17.578125,0.0
1699109051.1524189,-97.65625,-38.0859375,-51.26953125,-27.34375,0.0
1699109051.1563227,-179.6875,-50.78125,-55.17578125,-37.109375,0.0
1699109051.1602266,-34.1796875,36.62109375,-28.80859375,-28.3203125,0.0
1699109051.1641304,152.34375,64.453125,-6.34765625,-13.671875,0.0
1699109051.1680343,-29.296875,-40.0390625,-34.66796875,-22.94921875,0.0
1699109051.171938,-176.7578125,-94.23828125,-49.31640625,-30.2734375,0.0
1699109051.1758418,-99.609375,-22.4609375,-35.64453125,-40.0390625,0.0
1699109051.1797457,122.55859375,47.8515625,-13.18359375,-25.87890625,0.0
1699109051.1836495,42.48046875,-79.58984375,-43.45703125,-16.11328125,0.0
1699109051.1875534,-178.22265625,-120.1171875,-61.03515625,-37.59765625,0.0
1699109051.1914573,-148.4375,8.7890625,-25.390625,-53.22265625,0.0
1699109051.1953611,79.1015625,21.97265625,-9.27734375,-30.76171875,0.0
1699109051.1993787,104.4921875,-21.484375,-17.578125,-14.6484375,0.0
1699109051.2032826,-151.85546875,-50.78125,-35.15625,-38.57421875,0.0
1699109051.2071865,-175.78125,-27.83203125,-31.73828125,-44.921875,0.0
1699109051.2110903,20.01953125,-1.953125,-13.671875,-28.3203125,0.0
1699109051.2149942,154.78515625,-24.90234375,-17.08984375,-16.6015625,0.0
1699109051.218898,-70.80078125,-65.91796875,-42.48046875,-27.34375,0.0
1699109051.222802,-163.57421875,-32.71484375,-38.57421875,-42.48046875,0.0
1699109051.2267056,-25.87890625,-7.8125,-25.87890625,-36.62109375,0.0
1699109051.2306094,187.01171875,-35.64453125,-41.015625,-0.9765625,0.0
1699109051.2345133,2.44140625,-18.06640625,-40.0390625,-19.53125,0.0
1699109051.2384171,-181.640625,-26.3671875,-32.2265625,-48.33984375,0.0
1699109051.242321,-103.515625,-58.59375,-40.0390625,-40.52734375,0.0
1699109051.2463372,125.9765625,20.99609375,-2.9296875,-21.484375,0.0
1699109051.250241,63.4765625,17.08984375,-3.41796875,-25.87890625,0.0
1699109051.254145,-166.50390625,-56.640625,-39.0625,-43.9453125,0.0
1699109051.2580488,-140.625,-66.89453125,-43.45703125,-36.1328125,0.0
1699109051.2619526,71.2890625,-2.9296875,-12.6953125,-12.6953125,0.0
1699109051.2658565,115.234375,-6.34765625,-15.625,-8.30078125,0.0
1699109051.2697601,-134.27734375,-58.10546875,-46.875,-33.203125,0.0
1699109051.273664,-161.1328125,-104.4921875,-59.5703125,-30.2734375,0.0
1699109051.2775679,12.6953125,-45.41015625,-32.2265625,-13.671875,0.0
1699109051.2814717,152.83203125,94.7265625,11.23046875,-13.18359375,0.0
1699109051.2853756,-80.078125,-10.7421875,-25.390625,-31.73828125,0.0
1699109051.2892795,-196.2890625,-59.5703125,-41.50390625,-42.96875,0.0
1699109051.2932959,-68.359375,3.41796875,-18.5546875,-41.50390625,0.0
1699109051.2971997,145.99609375,40.52734375,-7.32421875,-22.4609375,0.0
1699109051.3011036,-8.7890625,-6.34765625,-39.0625,-23.4375,0.0
1699109051.3050075,-204.58984375,-63.96484375,-61.03515625,-37.59765625,0.0
1699109051.3089113,-125.48828125,-58.10546875,-43.9453125,-31.25,0.0
1699109051.3128152,109.375,8.30078125,-5.37109375,-10.25390625,0.0
1699109051.3167188,73.73046875,-5.37109375,-11.23046875,-2.44140625,0.0
1699109051.3206227,-155.2734375,-97.65625,-57.12890625,-16.6015625,0.0
1699109051.3245265,-151.3671875,-21.97265625,-28.80859375,-34.1796875,0.0
1699109051.3284304,44.921875,76.171875,14.6484375,-25.390625,0.0
1699109051.3323343,133.7890625,3.90625,-17.578125,-7.32421875,0.0
1699109051.3362381,-112.3046875,-58.59375,-48.828125,-28.80859375,0.0
1699109051.3402522,-175.29296875,-17.08984375,-29.296875,-41.9921875,0.0
1699109051.344156,-5.859375,22.94921875,-11.23046875,-26.85546875,0.0
1699109051.34806,178.7109375,3.41796875,-13.671875,-7.8125,0.0
1699109051.3519638,-28.80859375,-66.89453125,-42.48046875,-19.53125,0.0
1699109051.3558676,-168.9453125,-58.59375,-47.36328125,-34.66796875,0.0
1699109051.3597715,-58.10546875,-12.6953125,-32.71484375,-30.76171875,0.0
1699109051.3636754,163.57421875,-17.08984375,-24.4140625,-2.9296875,0.0
1699109051.3675792,40.52734375,-53.22265625,-35.15625,-7.8125,0.0
1699109051.371483,-166.9921875,10.7421875,-24.90234375,-24.90234375,0.0
1699109051.3753867,-123.53515625,1.46484375,-24.4140625,-22.94921875,0.0
1699109051.3792906,97.16796875,17.08984375,-8.7890625,-9.765625,0.0
1699109051.3831944,88.37890625,36.1328125,-9.765625,-4.8828125,0.0
1699109051.3872063,-165.0390625,-28.80859375,-42.48046875,-29.78515625,0.0
1699109051.39111,-175.29296875,-67.3828125,-49.31640625,-31.73828125,0.0
1699109051.3950138,21.484375,-7.8125,-23.92578125,-10.7421875,0.0
1699109051.3989177,141.11328125,33.69140625,-10.7421875,1.46484375,0.0
1699109051.4028215,-109.86328125,-54.6875,-47.8515625,-17.578125,0.0
1699109051.4067254,-169.43359375,-81.54296875,-53.22265625,-27.34375,0.0
1699109051.4106293,0.48828125,-87.40234375,-37.59765625,-6.34765625,0.0
1699109051.4145331,158.203125,9.27734375,-3.41796875,0.9765625,0.0
1699109051.418437,-36.62109375,32.2265625,-20.01953125,-18.06640625,0.0
1699109051.4223409,-177.24609375,-60.05859375,-60.546875,-21.97265625,0.0
1699109051.4262447,-77.63671875,-39.55078125,-33.69140625,-4.39453125,0.0
1699109051.4301486,148.92578125,47.36328125,7.32421875,10.25390625,0.0
1699109051.4341705,49.8046875,10.25390625,-8.7890625,-5.859375,0.0
1699109051.4380744,-182.12890625,-82.51953125,-51.26953125,-29.78515625,0.0
1699109051.4419782,-147.4609375,-62.5,-48.33984375,-22.94921875,0.0
1699109051.445882,73.73046875,38.57421875,-11.23046875,0.9765625,0.0
1699109051.449786,97.65625,26.85546875,-20.5078125,5.859375,0.0
1699109051.4536898,-144.04296875,-112.79296875,-71.2890625,-11.71875,0.0
1699109051.4575937,-166.015625,-87.40234375,-64.453125,-21.484375,0.0
1699109051.4614975,4.39453125,74.21875,-7.32421875,-13.671875,0.0
1699109051.4654014,141.6015625,62.5,-6.8359375,-0.9765625,0.0
1699109051.4693053,-83.984375,-55.17578125,-49.31640625,-11.23046875,0.0
1699109051.4732091,-184.08203125,-29.78515625,-45.8984375,-23.92578125,0.0
1699109051.477113,-46.38671875,36.62109375,-20.5078125,-22.94921875,0.0
1699109051.4811325,167.48046875,37.59765625,-8.30078125,6.34765625,0.0
1699109051.4850364,-4.39453125,-27.83203125,-36.62109375,-6.8359375,0.0
1699109051.4889402,-190.4296875,-37.109375,-40.0390625,-28.3203125,0.0
1699109051.492844,-111.81640625,-9.27734375,-20.99609375,-21.484375,0.0
1699109051.496748,116.69921875,-7.8125,-18.06640625,4.39453125,0.0
1699109051.5006518,55.17578125,-43.45703125,-30.76171875,6.34765625,0.0
1699109051.5045557,-177.24609375,-79.1015625,-42.48046875,-22.94921875,0.0
1699109051.5084596,-158.203125,-21.97265625,-23.4375,-24.90234375,0.0
1699109051.5123634,58.59375,24.90234375,-5.37109375,-5.859375,0.0
1699109051.516267,107.91015625,-62.98828125,-37.109375,7.32421875,0.0
1699109051.520171,-139.6484375,-34.1796875,-37.59765625,-16.11328125,0.0
1699109051.5240748,-178.22265625,2.9296875,-29.296875,-32.71484375,0.0
1699109051.5280957,1.46484375,-22.4609375,-38.57421875,-6.34765625,0.0
1699109051.5319996,159.1796875,23.92578125,-14.6484375,8.7890625,0.0
1699109051.5359035,-71.77734375,-2.44140625,-16.11328125,-23.92578125,0.0
1699109051.5398073,-196.77734375,-17.08984375,-36.62109375,-36.62109375,0.0
1699109051.543711,-64.94140625,-18.06640625,-37.109375,-13.671875,0.0
1699109051.5476148,163.0859375,-1.46484375,-15.13671875,13.18359375,0.0
1699109051.5515187,0.9765625,-1.46484375,-28.80859375,-13.671875,0.0
1699109051.5554225,-204.1015625,4.8828125,-41.50390625,-54.6875,0.0
1699109051.5593264,-126.46484375,-67.3828125,-52.734375,-34.66796875,0.0
1699109051.5632303,104.4921875,-31.73828125,-24.90234375,-5.37109375,0.0
1699109051.5671341,57.6171875,74.70703125,0.48828125,-25.390625,0.0
1699109051.571038,-172.8515625,-5.37109375,-31.73828125,-40.52734375,0.0
1699109051.575056,-150.87890625,-35.15625,-33.69140625,-36.1328125,0.0
1699109051.57896,43.45703125,39.0625,-4.8828125,-19.53125,0.0
1699109051.5828638,122.0703125,25.87890625,-9.765625,0.0,0.0
1699109051.5867677,-107.421875,-59.5703125,-45.8984375,-17.08984375,0.0
1699109051.5906715,-166.015625,-57.6171875,-49.8046875,-26.3671875,0.0
1699109051.5945754,0.48828125,-7.32421875,-24.4140625,-9.27734375,0.0
1699109051.5984793,167.48046875,38.57421875,-0.9765625,-1.953125,0.0
1699109051.6023831,-50.29296875,-38.0859375,-29.296875,-26.3671875,0.0
1699109051.606287,-188.96484375,-114.74609375,-53.22265625,-33.69140625,0.0
1699109051.6101909,-84.9609375,-5.859375,-25.87890625,-20.5078125,0.0
1699109051.6140947,144.53125,94.23828125,-0.9765625,-3.90625,0.0
1699109051.6179986,31.25,-13.671875,-33.69140625,-12.6953125,0.0
1699109051.6220143,-177.734375,-71.2890625,-52.734375,-33.203125,0.0
1699109051.6259181,-124.0234375,-13.18359375,-35.64453125,-30.76171875,0.0
1699109051.629822,102.05078125,44.43359375,-12.6953125,-7.32421875,0.0
1699109051.633726,90.8203125,-6.34765625,-26.85546875,1.953125,0.0
1699109051.6376297,-153.3203125,-67.87109375,-60.05859375,-14.6484375,0.0
1699109051.6415336,-159.1796875,-49.8046875,-52.24609375,-20.99609375,0.0
1699109051.6454375,33.203125,1.953125,-16.11328125,-7.32421875,0.0
1699109051.6493413,147.94921875,-35.64453125,-24.90234375,17.08984375,0.0
1699109051.6532452,-102.05078125,-78.125,-43.45703125,-4.39453125,0.0
1699109051.657149,-198.73046875,12.6953125,-18.5546875,-32.71484375,0.0
1699109051.661053,-43.45703125,18.06640625,-12.20703125,-21.484375,0.0
1699109051.6649568,156.73828125,23.4375,-8.30078125,-1.46484375,0.0
1699109051.6689827,-36.62109375,-13.671875,-28.80859375,-18.06640625,0.0
1699109051.6728866,-196.77734375,-30.76171875,-39.0625,-30.76171875,0.0
1699109051.6767905,-94.23828125,-20.01953125,-30.2734375,-20.99609375,0.0
1699109051.6806943,138.671875,18.5546875,-18.5546875,1.46484375,0.0
1699109051.6845982,31.25,-4.39453125,-37.59765625,-2.44140625,0.0
1699109051.688502,-187.5,-47.36328125,-48.33984375,-31.73828125,0.0
1699109051.692406,-147.94921875,-16.11328125,-41.50390625,-32.71484375,0.0
1699109051.6963098,83.49609375,3.90625,-21.484375,-4.39453125,0.0
1699109051.7002137,104.00390625,29.78515625,-6.8359375,-3.90625,0.0
1699109051.7041175,-154.296875,37.59765625,-17.578125,-31.73828125,0.0
1699109051.7080214,-163.57421875,-11.23046875,-31.25,-23.92578125,0.0
1699109051.7119253,21.484375,17.08984375,-24.4140625,-9.765625,0.0
1699109051.7159395,145.99609375,67.87109375,-6.34765625,0.48828125,0.0
1699109051.7198434,-89.35546875,7.8125,-31.73828125,-12.6953125,0.0
1699109051.7237473,-189.453125,-45.41015625,-54.6875,-24.4140625,0.0
1699109051.7276511,-48.828125,-12.20703125,-33.69140625,-10.25390625,0.0
1699109051.731555,157.2265625,61.03515625,-2.9296875,7.8125,0.0
1699109051.7354586,-12.20703125,-30.2734375,-43.9453125,-5.37109375,0.0
1699109051.7393625,-185.05859375,-62.5,-55.17578125,-21.484375,0.0
1699109051.7432663,-103.515625,11.71875,-21.97265625,-14.16015625,0.0
1699109051.7471702,128.41796875,70.80078125,5.859375,12.20703125,0.0
1699109051.751074,53.22265625,31.73828125,-11.23046875,11.23046875,0.0
1699109051.754978,-173.33984375,-110.83984375,-62.01171875,2.9296875,0.0
1699109051.7588818,-151.3671875,-88.37890625,-49.31640625,-2.44140625,0.0
1699109051.7628937,54.6875,83.49609375,12.20703125,-4.8828125,0.0
1699109051.7667975,112.3046875,32.71484375,-5.37109375,8.30078125,0.0
1699109051.7707014,-131.34765625,-52.24609375,-41.015625,-14.6484375,0.0
1699109051.7746053,-174.31640625,-18.5546875,-36.1328125,-29.78515625,0.0
1699109051.7785091,-2.9296875,0.0,-28.3203125,-11.23046875,0.0
1699109051.782413,157.71484375,7.32421875,-14.16015625,10.25390625,0.0
1699109051.7863169,-61.03515625,-81.0546875,-47.36328125,-2.44140625,0.0
1699109051.7902207,-183.59375,-50.78125,-37.109375,-23.4375,0.0
1699109051.7941246,-60.546875,47.36328125,-0.9765625,-28.80859375,0.0
1699109051.7980285,166.015625,30.2734375,-4.39453125,0.48828125,0.0
1699109051.8019323,8.7890625,-45.41015625,-37.109375,-5.37109375,0.0
1699109051.8058362,-193.84765625,-29.296875,-45.8984375,-38.57421875,0.0
1699109051.8098583,-124.0234375,-0.9765625,-36.62109375,-40.0390625,0.0
1699109051.8137622,100.5859375,-3.41796875,-26.85546875,-12.6953125,0.0
1699109051.817666,62.5,-22.4609375,-36.62109375,-8.30078125,0.0
1699109051.82157,-174.31640625,-18.5546875,-47.8515625,-39.55078125,0.0
1699109051.8254738,-160.64453125,-12.6953125,-40.0390625,-44.921875,0.0
1699109051.8293777,61.5234375,-38.57421875,-27.83203125,-10.25390625,0.0
1699109051.8332815,135.7421875,-27.34375,-30.2734375,-6.8359375,0.0
1699109051.8371854,-128.41796875,12.20703125,-42.48046875,-46.38671875,0.0
1699109051.8410892,-181.640625,7.32421875,-52.734375,-43.9453125,0.0
1699109051.844993,-10.7421875,-16.11328125,-51.7578125,-21.484375,0.0
1699109051.848897,147.4609375,38.57421875,-27.34375,-8.30078125,0.0
1699109051.8528008,-67.3828125,53.22265625,-29.78515625,-23.4375,0.0
1699109051.8568206,-194.3359375,7.8125,-42.48046875,-32.2265625,0.0
1699109051.8607244,-90.33203125,16.11328125,-34.1796875,-29.296875,0.0
1699109051.8646283,131.8359375,80.56640625,-7.32421875,-15.13671875,0.0
1699109051.8685322,8.30078125,28.3203125,-33.69140625,-18.5546875,0.0
1699109051.872436,-196.77734375,-52.24609375,-54.6875,-40.52734375,0.0
1699109051.87634,-147.94921875,-32.71484375,-41.9921875,-47.8515625,0.0
1699109051.8802438,76.66015625,32.71484375,-31.25,-21.484375,0.0
1699109051.8841476,59.08203125,35.64453125,-37.109375,-21.97265625,0.0
1699109051.8880515,-179.19921875,-20.99609375,-62.01171875,-42.48046875,0.0
1699109051.8919554,-166.50390625,-61.5234375,-58.59375,-26.85546875,0.0
1699109051.8958592,26.85546875,54.6875,-7.32421875,-18.5546875,0.0
1699109051.899763,125.9765625,104.00390625,10.25390625,-16.11328125,0.0
1699109051.9037805,-115.72265625,-17.08984375,-33.69140625,-24.90234375,0.0
1699109051.9076843,-187.5,-31.73828125,-43.45703125,-29.296875,0.0
1699109051.9115882,-32.2265625,47.36328125,-17.578125,-22.94921875,0.0
1699109051.915492,160.64453125,79.1015625,3.41796875,1.46484375,0.0
1699109051.919396,-38.57421875,-22.94921875,-28.3203125,-9.27734375,0.0
1699109051.9232998,-190.91796875,-69.82421875,-45.8984375,-28.80859375,0.0
1699109051.9272037,-90.8203125,-6.34765625,-23.92578125,-28.80859375,0.0
1699109051.9311075,134.27734375,68.84765625,4.39453125,-8.30078125,0.0
1699109051.9350114,38.57421875,-21.484375,-34.66796875,-5.37109375,0.0
1699109051.9389153,-180.17578125,-62.5,-55.6640625,-30.76171875,0.0
1699109051.942819,-145.01953125,58.10546875,-15.13671875,-40.52734375,0.0
1699109051.946723,86.9140625,61.03515625,-0.48828125,-7.8125,0.0
1699109051.950741,102.05078125,14.6484375,-14.6484375,0.9765625,0.0
1699109051.954645,-153.3203125,-6.34765625,-42.48046875,-25.87890625,0.0
1699109051.9585488,-173.828125,6.34765625,-39.55078125,-28.80859375,0.0
1699109051.9624527,11.71875,24.90234375,-19.53125,-8.7890625,0.0
1699109051.9663565,140.625,11.23046875,-13.671875,6.34765625,0.0
1699109051.9702604,-106.93359375,-47.36328125,-33.69140625,-12.20703125,0.0
1699109051.9741642,-206.0546875,-32.2265625,-36.1328125,-23.92578125,0.0
1699109051.978068,-53.7109375,22.4609375,-24.90234375,-18.06640625,0.0
1699109051.981972,155.76171875,5.859375,-23.92578125,8.7890625,0.0
1699109051.9858758,-30.76171875,-5.859375,-34.66796875,-11.23046875,0.0
1699109051.9897797,-202.1484375,7.32421875,-33.69140625,-39.55078125,0.0
1699109051.9936836,-113.76953125,3.41796875,-33.69140625,-34.1796875,0.0
1699109051.9976995,111.81640625,49.8046875,-24.4140625,-15.625,0.0
1699109052.0016034,32.71484375,44.921875,-30.76171875,-22.4609375,0.0
1699109052.0055072,-192.3828125,-8.7890625,-42.96875,-37.109375,0.0
1699109052.009411,-163.57421875,-27.83203125,-43.9453125,-36.1328125,0.0
1699109052.013315,60.546875,15.625,-24.90234375,-25.390625,0.0
1699109052.0172188,102.05078125,21.97265625,-21.484375,-16.11328125,0.0
1699109052.0211227,-151.85546875,-35.15625,-52.734375,-39.0625,0.0
1699109052.0250266,-173.828125,-79.1015625,-60.05859375,-34.1796875,0.0
1699109052.0289304,4.8828125,-10.25390625,-41.9921875,-13.18359375,0.0
1699109052.0328343,144.04296875,117.1875,-21.484375,-13.671875,0.0
1699109052.0367382,-83.984375,11.23046875,-42.48046875,-24.4140625,0.0
1699109052.040642,-194.3359375,-35.15625,-44.43359375,-36.1328125,0.0
1699109052.044671,-71.2890625,4.8828125,-34.66796875,-37.109375,0.0
1699109052.048575,142.578125,66.40625,-4.8828125,-17.578125,0.0
1699109052.0524788,-4.8828125,35.15625,-22.4609375,-22.4609375,0.0
1699109052.0563827,-184.08203125,-27.34375,-50.78125,-33.69140625,0.0
1699109052.0602865,-112.79296875,-15.625,-42.48046875,-26.85546875,0.0
1699109052.0641904,119.140625,45.8984375,-12.20703125,-3.90625,0.0
1699109052.0680943,82.03125,40.52734375,-21.484375,5.37109375,0.0
1699109052.0719981,-156.73828125,-50.78125,-59.5703125,-8.30078125,0.0
1699109052.075902,-153.80859375,15.625,-30.76171875,-23.92578125,0.0
1699109052.0798059,51.26953125,100.5859375,2.9296875,-15.13671875,0.0
1699109052.0837097,121.09375,32.71484375,-14.16015625,3.41796875,0.0
1699109052.0876136,-131.34765625,-24.4140625,-40.52734375,-23.4375,0.0
1699109052.091625,-173.828125,16.11328125,-34.1796875,-42.96875,0.0
1699109052.0955288,-4.39453125,69.82421875,-16.11328125,-26.85546875,0.0
1699109052.0994327,163.57421875,60.05859375,-10.25390625,3.90625,0.0
1699109052.1033368,-48.33984375,-14.6484375,-37.59765625,-5.859375,0.0
1699109052.1072407,-188.4765625,19.04296875,-37.59765625,-26.3671875,0.0
1699109052.1111445,-78.61328125,28.80859375,-28.80859375,-20.5078125,0.0
1699109052.1150484,154.78515625,59.5703125,-10.7421875,7.32421875,0.0
1699109052.1189523,20.01953125,58.10546875,-13.671875,-6.8359375,0.0
1699109052.1228561,-185.546875,30.2734375,-13.671875,-30.2734375,0.0
1699109052.12676,-120.1171875,54.19921875,-5.859375,-16.11328125,0.0
1699109052.1306639,112.3046875,10.25390625,-17.08984375,11.71875,0.0
1699109052.1345677,82.51953125,-8.30078125,-19.04296875,8.30078125,0.0
1699109052.1385798,-180.17578125,54.19921875,-18.5546875,-33.69140625,0.0
1699109052.1424837,-172.36328125,31.73828125,-34.1796875,-38.57421875,0.0
1699109052.1463876,26.85546875,57.6171875,-20.01953125,-15.625,0.0
1699109052.1502914,123.53515625,81.0546875,-12.6953125,-5.37109375,0.0
1699109052.1541953,-125.0,-9.27734375,-51.26953125,-30.2734375,0.0
1699109052.1580992,-184.5703125,-25.87890625,-58.59375,-39.0625,0.0
1699109052.1620033,-19.53125,-3.41796875,-32.2265625,-17.08984375,0.0
1699109052.1659071,160.15625,65.91796875,6.34765625,-9.765625,0.0
1699109052.169811,-49.8046875,69.3359375,-5.859375,-36.62109375,0.0
1699109052.1737149,-196.77734375,-6.34765625,-40.52734375,-39.0625,0.0
1699109052.1776187,-90.33203125,1.46484375,-48.828125,-26.3671875,0.0
1699109052.1815226,135.7421875,91.796875,-21.97265625,-11.71875,0.0
1699109052.1855445,37.59765625,47.36328125,-23.92578125,-15.13671875,0.0
1699109052.1894484,-172.36328125,-49.31640625,-37.109375,-30.76171875,0.0
1699109052.1933522,-134.27734375,-24.4140625,-24.90234375,-24.90234375,0.0
1699109052.1972563,85.44921875,13.671875,3.41796875,-3.90625,0.0
1699109052.2011602,104.98046875,-71.77734375,-1.46484375,-0.48828125,0.0
1699109052.205064,-144.04296875,-204.58984375,-53.22265625,-11.23046875,0.0
1699109052.208968,-167.48046875,-169.43359375,-52.734375,-12.6953125,0.0
1699109052.2128718,12.6953125,-21.97265625,-3.41796875,-5.859375,0.0
1699109052.2167757,132.8125,-42.96875,-14.6484375,14.16015625,0.0
1699109052.2206795,-100.5859375,-166.50390625,-62.98828125,-6.8359375,0.0
1699109052.2245834,-205.078125,-129.39453125,-45.8984375,-41.9921875,0.0
1699109052.2284873,-70.80078125,-27.34375,-6.34765625,-36.1328125,0.0
1699109052.2325068,145.01953125,-24.90234375,-0.9765625,-2.9296875,0.0
1699109052.2364106,-33.203125,-86.9140625,-28.80859375,-15.13671875,0.0
1699109052.2403145,-211.42578125,-66.40625,-38.57421875,-38.0859375,0.0
1699109052.2442183,-117.67578125,-26.3671875,-27.34375,-31.25,0.0
1699109052.2481222,122.55859375,-12.6953125,-8.30078125,1.953125,0.0
1699109052.2520263,51.7578125,-53.22265625,-39.0625,0.0,0.0
1699109052.2559302,-183.10546875,-86.9140625,-62.01171875,-31.73828125,0.0
1699109052.259834,-173.33984375,-30.76171875,-44.43359375,-41.9921875,0.0
1699109052.263738,50.29296875,6.8359375,-30.2734375,-12.6953125,0.0
1699109052.2676418,112.3046875,-55.6640625,-31.25,17.08984375,0.0
1699109052.2715456,-149.90234375,-51.7578125,-34.1796875,-11.71875,0.0
1699109052.2754495,-185.546875,-29.78515625,-39.55078125,-25.87890625,0.0
1699109052.2794669,7.8125,-20.01953125,-29.78515625,-2.44140625,0.0
1699109052.2833707,151.85546875,33.203125,-11.71875,9.765625,0.0
1699109052.2872746,-83.49609375,-1.46484375,-30.2734375,-9.27734375,0.0
1699109052.2911785,-185.05859375,-22.4609375,-42.48046875,-11.71875,0.0
1699109052.2950826,-44.921875,-14.6484375,-41.50390625,6.8359375,0.0
1699109052.2989864,174.31640625,9.765625,-20.01953125,24.90234375,0.0
1699109052.3028903,8.7890625,5.859375,-24.90234375,7.32421875,0.0
1699109052.3067942,-186.03515625,12.20703125,-32.71484375,-22.94921875,0.0
1699109052.310698,-103.02734375,-50.29296875,-46.875,-5.37109375,0.0
1699109052.314602,128.90625,1.46484375,-21.484375,25.87890625,0.0
1699109052.3185058,68.359375,101.5625,-2.9296875,5.859375,0.0
1699109052.3224096,-171.38671875,14.16015625,-31.73828125,-14.6484375,0.0
1699109052.3264277,-157.71484375,-3.90625,-28.80859375,-21.97265625,0.0
1699109052.3303316,38.0859375,59.08203125,-14.6484375,-21.484375,0.0
1699109052.3342354,116.2109375,43.45703125,-12.20703125,-0.9765625,0.0
1699109052.3381395,-130.859375,-20.01953125,-42.96875,-24.90234375,0.0
1699109052.3420434,-197.75390625,-39.0625,-61.5234375,-44.921875,0.0
1699109052.3459473,-19.53125,0.48828125,-30.76171875,-29.296875,0.0
1699109052.3498511,148.92578125,42.48046875,-8.30078125,-11.23046875,0.0
1699109052.353755,-72.75390625,-23.4375,-50.78125,-21.97265625,0.0
1699109052.3576589,-211.9140625,-78.61328125,-68.84765625,-34.1796875,0.0
1699109052.3615627,-110.83984375,19.04296875,-14.16015625,-41.9921875,0.0
1699109052.3654666,126.953125,104.4921875,20.99609375,-21.97265625,0.0
1699109052.3693707,5.859375,-7.32421875,-21.97265625,-18.06640625,0.0
1699109052.3733864,-207.51953125,-48.828125,-38.0859375,-42.96875,0.0
1699109052.3772902,-153.3203125,0.48828125,-24.4140625,-47.36328125,0.0
1699109052.381194,74.70703125,42.96875,-8.7890625,-32.71484375,0.0
1699109052.385098,56.640625,-10.7421875,-28.80859375,-30.2734375,0.0
1699109052.3890018,-192.87109375,-70.3125,-62.01171875,-52.734375,0.0
1699109052.392906,-195.3125,-40.52734375,-51.26953125,-51.26953125,0.0
1699109052.3968098,19.04296875,16.11328125,-24.90234375,-40.0390625,0.0
1699109052.4007137,124.0234375,-17.578125,-27.34375,-20.01953125,0.0
1699109052.4046175,-125.9765625,-61.5234375,-41.015625,-24.4140625,0.0
1699109052.4085214,-208.984375,27.34375,-28.3203125,-47.36328125,0.0
1699109052.4124253,-39.55078125,55.17578125,-22.94921875,-30.2734375,0.0
1699109052.4163291,160.64453125,71.77734375,4.39453125,6.8359375,0.0
1699109052.420343,-48.828125,34.1796875,-16.6015625,-19.53125,0.0
1699109052.4242468,-194.82421875,10.7421875,-37.109375,-40.0390625,0.0
1699109052.4281507,-79.1015625,14.6484375,-24.4140625,-15.625,0.0
1699109052.4320545,148.4375,51.7578125,-3.90625,4.39453125,0.0
1699109052.4359584,32.2265625,17.08984375,-25.390625,-2.9296875,0.0
1699109052.4398623,-185.546875,-19.04296875,-41.50390625,-24.90234375,0.0
1699109052.4437664,-145.5078125,2.44140625,-33.69140625,-24.90234375,0.0
1699109052.4476702,79.58984375,4.8828125,-28.80859375,-2.9296875,0.0
1699109052.451574,74.21875,57.6171875,-13.671875,-4.8828125,0.0
1699109052.455478,-182.6171875,73.2421875,-16.6015625,-29.78515625,0.0
1699109052.4593818,-184.08203125,23.4375,-30.76171875,-23.4375,0.0
1699109052.4632857,11.23046875,43.45703125,-22.4609375,-14.6484375,0.0
1699109052.4672968,132.8125,68.359375,-12.6953125,-0.48828125,0.0
1699109052.4712007,-108.3984375,18.06640625,-20.99609375,-7.32421875,0.0
1699109052.4751048,-187.5,-27.83203125,-32.2265625,-21.484375,0.0
1699109052.4790087,-36.1328125,23.4375,-10.7421875,-9.765625,0.0
1699109052.4829125,162.59765625,84.9609375,14.16015625,4.8828125,0.0
1699109052.4868164,-21.97265625,2.9296875,-24.4140625,-7.8125,0.0
1699109052.4907203,-186.03515625,-78.125,-49.31640625,-18.5546875,0.0
1699109052.4946241,-91.796875,-38.0859375,-25.87890625,-13.18359375,0.0
1699109052.498528,130.37109375,117.67578125,20.99609375,0.48828125,0.0
1699109052.502432,53.22265625,47.36328125,-19.53125,-0.9765625,0.0
1699109052.506336,-171.875,-47.8515625,-57.6171875,-23.92578125,0.0
1699109052.5102398,-150.87890625,15.625,-29.296875,-34.1796875,0.0
1699109052.5142517,76.171875,88.37890625,2.44140625,-10.25390625,0.0
1699109052.5181556,111.328125,47.8515625,-21.484375,-1.953125,0.0
1699109052.5220594,-148.92578125,-23.92578125,-52.24609375,-23.4375,0.0
1699109052.5259633,-175.78125,7.8125,-36.1328125,-33.69140625,0.0
1699109052.5298672,10.25390625,38.57421875,-34.1796875,-21.484375,0.0
1699109052.5337713,154.296875,27.83203125,-34.1796875,-2.44140625,0.0
1699109052.5376751,-78.61328125,-39.0625,-53.7109375,-13.18359375,0.0
1699109052.541579,-191.89453125,-7.8125,-44.921875,-33.69140625,0.0
1699109052.5454829,-63.4765625,59.08203125,-13.671875,-32.71484375,0.0
1699109052.5493867,158.69140625,52.734375,-5.37109375,-3.90625,0.0
1699109052.5532906,1.46484375,-29.296875,-35.64453125,-10.25390625,0.0
1699109052.5571947,-191.40625,-21.97265625,-41.015625,-29.296875,0.0
1699109052.5612166,-111.81640625,22.4609375,-28.80859375,-27.34375,0.0
1699109052.5651205,128.41796875,32.2265625,-16.11328125,-3.90625,0.0
1699109052.5690243,62.01171875,22.4609375,-26.85546875,-3.90625,0.0
1699109052.5729282,-190.91796875,18.06640625,-41.9921875,-32.2265625,0.0
1699109052.576832,-168.45703125,14.6484375,-36.1328125,-27.83203125,0.0
1699109052.5807362,65.91796875,-17.578125,-28.80859375,5.859375,0.0
1699109052.58464,122.0703125,-1.953125,-20.5078125,10.7421875,0.0
1699109052.588544,-148.4375,31.73828125,-23.92578125,-25.390625,0.0
1699109052.5924478,-184.5703125,23.92578125,-35.64453125,-30.76171875,0.0
1699109052.5963516,-0.48828125,13.671875,-40.52734375,-5.37109375,0.0
1699109052.6002557,154.296875,53.22265625,-18.5546875,12.6953125,0.0
1699109052.6041596,-74.21875,45.41015625,-15.13671875,-11.71875,0.0
1699109052.6081789,-192.87109375,-0.9765625,-29.296875,-28.3203125,0.0
1699109052.612083,-67.3828125,-8.7890625,-31.25,-19.53125,0.0
1699109052.6159868,153.3203125,72.265625,-8.30078125,-6.34765625,0.0
1699109052.6198907,20.99609375,46.38671875,-31.25,-11.23046875,0.0
1699109052.6237946,-177.24609375,-33.69140625,-54.19921875,-26.85546875,0.0
1699109052.6276984,-124.0234375,-16.6015625,-38.57421875,-30.2734375,0.0
1699109052.6316025,108.3984375,46.38671875,-7.8125,-9.27734375,0.0
1699109052.6355064,82.03125,53.7109375,-9.27734375,-12.6953125,0.0
1699109052.6394103,-158.69140625,-13.671875,-36.62109375,-31.73828125,0.0
1699109052.6433141,-147.94921875,-57.6171875,-46.875,-20.99609375,0.0
1699109052.647218,47.8515625,67.3828125,-8.30078125,-11.23046875,0.0
1699109052.6511219,134.765625,119.140625,5.859375,-7.32421875,0.0
1699109052.6551392,-113.76953125,-19.53125,-46.875,-22.94921875,0.0
1699109052.6590433,-186.03515625,-37.109375,-51.7578125,-39.0625,0.0
1699109052.6629472,-21.97265625,49.31640625,-16.6015625,-35.15625,0.0
1699109052.666851,166.50390625,77.1484375,0.48828125,-8.30078125,0.0
1699109052.670755,-37.109375,-15.13671875,-36.1328125,-7.8125,0.0
1699109052.6746588,-187.98828125,-68.359375,-60.05859375,-25.390625,0.0
1699109052.6785629,-81.54296875,-23.4375,-37.109375,-21.97265625,0.0
1699109052.6824667,141.6015625,72.265625,4.8828125,1.46484375,0.0
1699109052.6863706,29.296875,-16.11328125,-34.66796875,6.34765625,0.0
1699109052.6902745,-178.22265625,-78.125,-54.6875,-15.625,0.0
1699109052.6941783,-144.53125,41.50390625,-13.671875,-35.64453125,0.0
1699109052.6980824,91.796875,62.01171875,-9.27734375,-4.8828125,0.0
1699109052.7020974,91.796875,16.11328125,-21.484375,5.37109375,0.0
1699109052.7060013,-173.828125,-19.04296875,-41.50390625,-22.94921875,0.0
1699109052.7099051,-179.6875,-8.7890625,-40.52734375,-23.4375,0.0
1699109052.713809,20.5078125,12.20703125,-23.4375,-4.39453125,0.0
1699109052.717713,137.20703125,9.27734375,-20.99609375,10.25390625,0.0
1699109052.721617,-105.46875,-46.38671875,-45.41015625,-12.20703125,0.0
1699109052.7255208,-186.5234375,-29.296875,-40.0390625,-32.2265625,0.0
1699109052.7294247,-32.2265625,25.390625,-17.08984375,-27.34375,0.0
1699109052.7333286,173.33984375,-9.765625,-21.97265625,9.27734375,0.0
1699109052.7372327,-21.97265625,-15.13671875,-31.73828125,-3.90625,0.0
1699109052.7411366,-194.3359375,36.62109375,-20.99609375,-38.57421875,0.0
1699109052.7450404,-90.33203125,8.30078125,-28.3203125,-24.4140625,0.0
1699109052.7490563,148.92578125,41.50390625,-14.6484375,4.8828125,0.0
1699109052.7529602,52.24609375,47.8515625,-17.578125,-7.32421875,0.0
1699109052.756864,-179.6875,-5.859375,-41.50390625,-35.15625,0.0
1699109052.760768,-143.5546875,-24.4140625,-41.50390625,-27.34375,0.0
1699109052.7646718,83.984375,20.5078125,-11.71875,4.39453125,0.0
1699109052.768576,110.83984375,17.08984375,-10.25390625,17.578125,0.0
1699109052.7724798,-150.87890625,-38.57421875,-37.59765625,-16.11328125,0.0
1699109052.7763836,-169.921875,-62.5,-41.9921875,-17.578125,0.0
1699109052.7802875,19.53125,-15.625,-19.53125,11.23046875,0.0
1699109052.7841914,151.3671875,104.4921875,15.13671875,14.6484375,0.0
1699109052.7880955,-87.890625,30.76171875,-22.94921875,-7.32421875,0.0
1699109052.7919993,-184.08203125,-43.45703125,-53.22265625,-12.6953125,0.0
1699109052.7960129,-39.0625,9.27734375,-26.3671875,-7.8125,0.0
1699109052.799917,173.33984375,93.26171875,2.44140625,9.27734375,0.0
1699109052.8038208,5.37109375,14.16015625,-21.97265625,3.90625,0.0
1699109052.8077247,-179.19921875,-42.96875,-35.15625,-20.01953125,0.0
1699109052.8116286,-94.23828125,-1.953125,-18.5546875,-11.71875,0.0
1699109052.8155327,142.578125,54.6875,6.34765625,15.625,0.0
1699109052.8194366,70.3125,22.4609375,-15.13671875,8.7890625,0.0
1699109052.8233404,-173.828125,-65.4296875,-55.6640625,-6.8359375,0.0
1699109052.8272443,-156.25,-1.46484375,-36.1328125,-19.04296875,0.0
1699109052.8311481,64.94140625,109.86328125,2.44140625,-17.578125,0.0
1699109052.8350523,129.39453125,69.82421875,-28.80859375,-1.953125,0.0
1699109052.838956,-130.859375,-3.90625,-57.6171875,-22.4609375,0.0
1699109052.8429675,-175.78125,23.4375,-25.87890625,-33.69140625,0.0
1699109052.8468714,0.9765625,67.87109375,-3.90625,-23.4375,0.0
1699109052.8507752,163.0859375,41.9921875,-13.671875,-5.859375,0.0
1699109052.854679,-61.03515625,-13.18359375,-42.48046875,-24.4140625,0.0
1699109052.8585832,-192.3828125,-2.44140625,-49.8046875,-44.43359375,0.0
1699109052.862487,-62.5,-2.9296875,-49.31640625,-31.25,0.0
1699109052.866391,166.50390625,-9.765625,-30.2734375,-7.8125,0.0
1699109052.8702948,14.6484375,-38.57421875,-34.1796875,-20.5078125,0.0
1699109052.874199,-186.5234375,25.87890625,-23.4375,-48.828125,0.0
1699109052.8781028,-118.65234375,26.85546875,-21.97265625,-44.43359375,0.0
1699109052.8820066,109.86328125,34.66796875,-11.23046875,-21.484375,0.0
1699109052.8859105,65.91796875,25.87890625,-24.90234375,-21.484375,0.0
1699109052.8899193,-183.59375,-10.25390625,-55.6640625,-45.8984375,0.0
1699109052.8938234,-171.38671875,-10.25390625,-46.875,-41.9921875,0.0
1699109052.8977273,35.64453125,20.99609375,-21.484375,-25.390625,0.0
1699109052.901631,110.83984375,46.875,-15.13671875,-18.06640625,0.0
1699109052.905535,-130.37109375,-30.2734375,-45.8984375,-26.85546875,0.0
1699109052.909439,-187.98828125,-52.734375,-49.31640625,-35.64453125,0.0
1699109052.913343,-25.87890625,-22.4609375,-34.1796875,-28.3203125,0.0
1699109052.9172468,151.85546875,55.17578125,0.48828125,-15.625,0.0
1699109052.9211507,-60.05859375,64.453125,-8.30078125,-31.73828125,0.0
1699109052.9250548,-199.70703125,-20.01953125,-45.8984375,-41.015625,0.0
1699109052.9289587,-85.9375,-10.25390625,-32.71484375,-38.0859375,0.0
1699109052.9328625,142.578125,90.33203125,6.34765625,-18.5546875,0.0
1699109052.9368815,14.16015625,39.0625,-15.13671875,-19.53125,0.0
1699109052.9407854,-197.265625,-54.6875,-47.36328125,-41.015625,0.0
1699109052.9446893,-137.20703125,-36.62109375,-43.45703125,-30.76171875,0.0
1699109052.9485931,95.703125,60.05859375,-11.23046875,-6.8359375,0.0
1699109052.9524972,89.84375,37.59765625,-21.97265625,-4.8828125,0.0
1699109052.956401,-156.25,-94.23828125,-69.82421875,-16.11328125,0.0
1699109052.960305,-168.9453125,-71.77734375,-52.24609375,-19.53125,0.0
1699109052.9642088,29.296875,65.4296875,2.9296875,-15.625,0.0
1699109052.968113,148.92578125,32.2265625,-14.6484375,1.953125,0.0
1699109052.9720168,-107.91015625,-33.69140625,-48.33984375,-8.30078125,0.0
1699109052.9759207,-194.82421875,-16.6015625,-41.015625,-28.80859375,0.0
1699109052.9798245,-39.55078125,38.0859375,-9.765625,-28.80859375,0.0
1699109052.9838448,159.66796875,71.77734375,7.8125,-4.39453125,0.0
1699109052.9877486,-29.78515625,7.32421875,-28.80859375,-13.671875,0.0
1699109052.9916525,-195.3125,0.9765625,-41.50390625,-37.109375,0.0
1699109052.9955566,-90.8203125,30.2734375,-26.85546875,-31.73828125,0.0
1699109052.9994605,159.66796875,52.734375,-13.671875,3.41796875,0.0
1699109053.0033643,62.98828125,16.6015625,-32.71484375,0.48828125,0.0
1699109053.0072682,-165.52734375,-14.6484375,-44.921875,-28.80859375,0.0
1699109053.0111723,-131.8359375,23.92578125,-26.85546875,-32.2265625,0.0
1699109053.0150762,89.35546875,52.24609375,-7.32421875,-13.18359375,0.0
1699109053.01898,107.421875,-17.578125,-31.25,1.953125,0.0
1699109053.0228841,-162.109375,-32.2265625,-47.8515625,-28.3203125,0.0
1699109053.026788,-187.01171875,0.9765625,-31.73828125,-40.52734375,0.0
1699109053.0308053,11.71875,15.625,-21.484375,-14.6484375,0.0
1699109053.0347095,143.06640625,32.2265625,-6.34765625,-2.9296875,0.0
1699109053.0386133,-96.6796875,5.859375,-14.16015625,-22.4609375,0.0
1699109053.0425172,-196.77734375,-5.859375,-25.87890625,-30.2734375,0.0
1699109053.0464213,-56.15234375,-1.46484375,-23.4375,-12.6953125,0.0
1699109053.0503252,154.296875,8.7890625,-12.20703125,11.71875,0.0
1699109053.054229,-22.94921875,6.8359375,-20.5078125,-9.27734375,0.0
1699109053.058133,-193.359375,11.71875,-29.78515625,-35.15625,0.0
1699109053.062037,-101.07421875,-58.10546875,-42.48046875,-20.99609375,0.0
1699109053.0659409,118.65234375,-14.6484375,-20.99609375,-1.46484375,0.0
1699109053.0698447,20.99609375,79.1015625,-11.23046875,-28.80859375,0.0
1699109053.0737486,-204.1015625,-7.32421875,-44.43359375,-49.31640625,0.0
1699109053.0777638,-166.015625,-35.64453125,-45.41015625,-39.0625,0.0
1699109053.081668,56.15234375,14.6484375,-25.87890625,-23.92578125,0.0
